VERSION=1.3
ExportFileName=Factor Mix 16_2025-05-14_13-24-16_labchip_PURE_Data_E1
SampleLabel=E1
SampleName=Factor Mix 16
SampleComment=
SampleAreaConcRatio=0.010619
SampleLowerMarkerTime=12.30
SampleUpperMarkerTime=-1.00
SamplePeakTimes=12.30,15.27,15.65,18.63,19.85,20.28,20.52,20.93,21.25,21.97,22.58,24.25,25.90,26.27,27.63,29.72
SamplePeakSizes=1.102,6.998,8.335,24.196,33.501,37.201,39.274,43.116,46.152,53.383,59.989,79.470,100.808,105.791,125.033,156.061
SamplePeakQuantities=,,,12.7201,24.9673,13.4783,3.2993,6.0927,310.7766,16.1628,8.1788,10.4374,20.1959,28.4128,22.5345,3.1191
PlateFileName=2025-05-14_13-24-16_labchip_PURE
PlateAssayName=HT Protein Express 200
PlateBarCode=N/A
WellAquisitionTime=5/14/2025 1:40:54 PM 
PlateDataFrequency=60
PlateDataStartTime=11.00
PlateDataEndTime=42.00
PlateConcUnits=ng/ul
PlateSizeUnits=kDa
PlateLadderSizes=1.40,15.90,20.40,28.90,48.40,68.40,119.20
ChipID=H296P-0563N-03
Operator=ACJS
DATA
Time,Value,Size
0.000,44.125,0.00
0.017,44.191,0.00
0.033,44.260,0.00
0.050,44.315,0.00
0.067,44.287,0.00
0.083,44.196,0.00
0.100,44.161,0.00
0.117,44.086,0.00
0.133,43.939,0.00
0.150,43.681,0.00
0.167,43.328,0.00
0.183,42.964,0.00
0.200,42.551,0.00
0.217,42.113,0.00
0.233,41.577,0.00
0.250,40.892,0.00
0.267,40.123,0.00
0.283,39.309,0.00
0.300,38.537,0.00
0.317,37.850,0.00
0.333,37.162,0.00
0.350,36.416,0.00
0.367,35.652,0.00
0.383,34.970,0.00
0.400,34.396,0.00
0.417,33.876,0.00
0.433,33.367,0.00
0.450,32.845,0.00
0.467,32.277,0.00
0.483,31.706,0.00
0.500,31.103,0.00
0.517,30.514,0.00
0.533,29.953,0.00
0.550,29.504,0.00
0.567,29.135,0.00
0.583,28.768,0.00
0.600,28.315,0.00
0.617,27.870,0.00
0.633,27.450,0.00
0.650,27.130,0.00
0.667,26.850,0.00
0.683,26.535,0.00
0.700,26.173,0.00
0.717,25.760,0.00
0.733,25.397,0.00
0.750,25.044,0.00
0.767,24.735,0.00
0.783,24.424,0.00
0.800,24.115,0.00
0.817,23.820,0.00
0.833,23.560,0.00
0.850,23.229,0.00
0.867,22.892,0.00
0.883,22.565,0.00
0.900,22.316,0.00
0.917,22.131,0.00
0.933,21.964,0.00
0.950,21.760,0.00
0.967,21.551,0.00
0.983,21.359,0.00
1.000,21.215,0.00
1.017,21.073,0.00
1.033,20.906,0.00
1.050,20.706,0.00
1.067,20.512,0.00
1.083,20.327,0.00
1.100,20.131,0.00
1.117,19.978,0.00
1.133,19.866,0.00
1.150,19.745,0.00
1.167,19.605,0.00
1.183,19.459,0.00
1.200,19.294,0.00
1.217,19.122,0.00
1.233,18.983,0.00
1.250,18.912,0.00
1.267,18.840,0.00
1.283,18.791,0.00
1.300,18.688,0.00
1.317,18.513,0.00
1.333,18.306,0.00
1.350,18.159,0.00
1.367,18.073,0.00
1.383,18.020,0.00
1.400,17.927,0.00
1.417,17.793,0.00
1.433,17.647,0.00
1.450,17.581,0.00
1.467,17.511,0.00
1.483,17.424,0.00
1.500,17.233,0.00
1.517,17.092,0.00
1.533,16.993,0.00
1.550,16.910,0.00
1.567,16.857,0.00
1.583,16.764,0.00
1.600,16.707,0.00
1.617,16.678,0.00
1.633,16.666,0.00
1.650,16.614,0.00
1.667,16.475,0.00
1.683,16.272,0.00
1.700,16.046,0.00
1.717,15.882,0.00
1.733,15.807,0.00
1.750,15.774,0.00
1.767,15.779,0.00
1.783,15.759,0.00
1.800,15.678,0.00
1.817,15.528,0.00
1.833,15.338,0.00
1.850,15.192,0.00
1.867,15.125,0.00
1.883,15.116,0.00
1.900,15.102,0.00
1.917,15.020,0.00
1.933,14.902,0.00
1.950,14.834,0.00
1.967,14.805,0.00
1.983,14.760,0.00
2.000,14.693,0.00
2.017,14.648,0.00
2.033,14.600,0.00
2.050,14.513,0.00
2.067,14.392,0.00
2.083,14.293,0.00
2.100,14.194,0.00
2.117,14.166,0.00
2.133,14.104,0.00
2.150,13.986,0.00
2.167,13.882,0.00
2.183,13.807,0.00
2.200,13.786,0.00
2.217,13.754,0.00
2.233,13.641,0.00
2.250,13.553,0.00
2.267,13.467,0.00
2.283,13.423,0.00
2.300,13.368,0.00
2.317,13.323,0.00
2.333,13.251,0.00
2.350,13.165,0.00
2.367,13.095,0.00
2.383,12.996,0.00
2.400,12.909,0.00
2.417,12.834,0.00
2.433,12.814,0.00
2.450,12.755,0.00
2.467,12.665,0.00
2.483,12.589,0.00
2.500,12.494,0.00
2.517,12.387,0.00
2.533,12.298,0.00
2.550,12.243,0.00
2.567,12.225,0.00
2.583,12.225,0.00
2.600,12.230,0.00
2.617,12.174,0.00
2.633,12.074,0.00
2.650,12.005,0.00
2.667,11.937,0.00
2.683,11.855,0.00
2.700,11.791,0.00
2.717,11.745,0.00
2.733,11.677,0.00
2.750,11.598,0.00
2.767,11.531,0.00
2.783,11.457,0.00
2.800,11.384,0.00
2.817,11.308,0.00
2.833,11.249,0.00
2.850,11.180,0.00
2.867,11.137,0.00
2.883,11.115,0.00
2.900,11.048,0.00
2.917,10.963,0.00
2.933,10.905,0.00
2.950,10.843,0.00
2.967,10.869,0.00
2.983,10.870,0.00
3.000,10.843,0.00
3.017,10.741,0.00
3.033,10.600,0.00
3.050,10.469,0.00
3.067,10.392,0.00
3.083,10.396,0.00
3.100,10.419,0.00
3.117,10.384,0.00
3.133,10.312,0.00
3.150,10.185,0.00
3.167,10.121,0.00
3.183,10.106,0.00
3.200,9.988,0.00
3.217,9.668,0.00
3.233,9.127,0.00
3.250,8.464,0.00
3.267,7.856,0.00
3.283,7.373,0.00
3.300,6.958,0.00
3.317,6.566,0.00
3.333,6.224,0.00
3.350,5.936,0.00
3.367,5.702,0.00
3.383,5.510,0.00
3.400,5.335,0.00
3.417,5.191,0.00
3.433,5.098,0.00
3.450,5.031,0.00
3.467,4.975,0.00
3.483,4.923,0.00
3.500,4.862,0.00
3.517,4.796,0.00
3.533,4.725,0.00
3.550,4.690,0.00
3.567,4.696,0.00
3.583,4.780,0.00
3.600,4.863,0.00
3.617,4.851,0.00
3.633,4.769,0.00
3.650,4.642,0.00
3.667,4.558,0.00
3.683,4.588,0.00
3.700,4.621,0.00
3.717,4.643,0.00
3.733,4.648,0.00
3.750,4.647,0.00
3.767,4.604,0.00
3.783,4.567,0.00
3.800,4.548,0.00
3.817,4.517,0.00
3.833,4.501,0.00
3.850,4.530,0.00
3.867,4.515,0.00
3.883,4.517,0.00
3.900,4.510,0.00
3.917,4.484,0.00
3.933,4.442,0.00
3.950,4.406,0.00
3.967,4.371,0.00
3.983,4.344,0.00
4.000,4.311,0.00
4.017,4.309,0.00
4.033,4.285,0.00
4.050,4.231,0.00
4.067,4.128,0.00
4.083,4.044,0.00
4.100,3.998,0.00
4.117,4.040,0.00
4.133,4.091,0.00
4.150,4.065,0.00
4.167,3.984,0.00
4.183,3.915,0.00
4.200,3.886,0.00
4.217,3.899,0.00
4.233,3.935,0.00
4.250,3.939,0.00
4.267,3.896,0.00
4.283,3.839,0.00
4.300,3.799,0.00
4.317,3.747,0.00
4.333,3.786,0.00
4.350,3.865,0.00
4.367,3.905,0.00
4.383,3.902,0.00
4.400,3.871,0.00
4.417,3.843,0.00
4.433,3.883,0.00
4.450,3.944,0.00
4.467,3.953,0.00
4.483,3.868,0.00
4.500,3.757,0.00
4.517,3.691,0.00
4.533,3.625,0.00
4.550,3.582,0.00
4.567,3.573,0.00
4.583,3.600,0.00
4.600,3.713,0.00
4.617,3.788,0.00
4.633,3.838,0.00
4.650,3.841,0.00
4.667,3.902,0.00
4.683,4.048,0.00
4.700,4.216,0.00
4.717,4.358,0.00
4.733,4.477,0.00
4.750,4.637,0.00
4.767,4.839,0.00
4.783,5.081,0.00
4.800,5.306,0.00
4.817,5.503,0.00
4.833,5.715,0.00
4.850,5.944,0.00
4.867,6.212,0.00
4.883,6.494,0.00
4.900,6.753,0.00
4.917,6.989,0.00
4.933,7.190,0.00
4.950,7.382,0.00
4.967,7.584,0.00
4.983,7.810,0.00
5.000,8.084,0.00
5.017,8.377,0.00
5.033,8.664,0.00
5.050,8.912,0.00
5.067,9.083,0.00
5.083,9.244,0.00
5.100,9.439,0.00
5.117,9.608,0.00
5.133,9.691,0.00
5.150,9.715,0.00
5.167,9.697,0.00
5.183,9.731,0.00
5.200,9.770,0.00
5.217,9.869,0.00
5.233,9.934,0.00
5.250,10.019,0.00
5.267,10.102,0.00
5.283,10.040,0.00
5.300,10.131,0.00
5.317,10.295,0.00
5.333,10.265,0.00
5.350,9.561,0.00
5.367,8.346,0.00
5.383,7.500,0.00
5.400,7.310,0.00
5.417,7.506,0.00
5.433,7.469,0.00
5.450,6.795,0.00
5.467,5.943,0.00
5.483,5.413,0.00
5.500,5.377,0.00
5.517,5.436,0.00
5.533,5.389,0.00
5.550,5.284,0.00
5.567,5.213,0.00
5.583,5.161,0.00
5.600,5.136,0.00
5.617,5.177,0.00
5.633,5.249,0.00
5.650,5.319,0.00
5.667,5.339,0.00
5.683,5.325,0.00
5.700,5.228,0.00
5.717,5.063,0.00
5.733,4.951,0.00
5.750,4.877,0.00
5.767,4.853,0.00
5.783,4.936,0.00
5.800,5.016,0.00
5.817,4.988,0.00
5.833,4.887,0.00
5.850,4.800,0.00
5.867,4.736,0.00
5.883,4.674,0.00
5.900,4.654,0.00
5.917,4.642,0.00
5.933,4.601,0.00
5.950,4.538,0.00
5.967,4.449,0.00
5.983,4.348,0.00
6.000,4.212,0.00
6.017,4.108,0.00
6.033,4.063,0.00
6.050,3.978,0.00
6.067,3.963,0.00
6.083,4.062,0.00
6.100,4.146,0.00
6.117,3.999,0.00
6.133,3.857,0.00
6.150,3.677,0.00
6.167,3.558,0.00
6.183,3.576,0.00
6.200,3.624,0.00
6.217,3.587,0.00
6.233,3.469,0.00
6.250,3.324,0.00
6.267,3.176,0.00
6.283,2.973,0.00
6.300,2.833,0.00
6.317,2.727,0.00
6.333,2.722,0.00
6.350,2.655,0.00
6.367,2.550,0.00
6.383,2.588,0.00
6.400,2.744,0.00
6.417,2.911,0.00
6.433,2.911,0.00
6.450,2.552,0.00
6.467,-0.616,0.00
6.483,2.499,0.00
6.500,19.232,0.00
6.517,8.937,0.00
6.533,-33.097,0.00
6.550,13.506,0.00
6.567,245.042,0.00
6.583,778.378,0.00
6.600,1690.059,0.00
6.617,2707.234,0.00
6.633,3458.055,0.00
6.650,3755.645,0.00
6.667,3693.478,0.00
6.683,3497.194,0.00
6.700,3368.367,0.00
6.717,3398.324,0.00
6.733,3463.327,0.00
6.750,3424.234,0.00
6.767,3423.911,0.00
6.783,3422.020,0.00
6.800,3423.332,0.00
6.817,3425.048,0.00
6.833,3427.689,0.00
6.850,3427.788,0.00
6.867,3426.756,0.00
6.883,3424.828,0.00
6.900,3423.777,0.00
6.917,3422.863,0.00
6.933,3422.865,0.00
6.950,3424.344,0.00
6.967,3425.197,0.00
6.983,3424.372,0.00
7.000,3423.979,0.00
7.017,3422.885,0.00
7.033,3421.272,0.00
7.050,3421.587,0.00
7.067,3423.080,0.00
7.083,3424.289,0.00
7.100,3424.963,0.00
7.117,3425.225,0.00
7.133,3425.127,0.00
7.150,3425.475,0.00
7.167,3426.732,0.00
7.183,3428.541,0.00
7.200,3429.513,0.00
7.217,3430.274,0.00
7.233,3430.548,0.00
7.250,3430.192,0.00
7.267,3429.861,0.00
7.283,3429.759,0.00
7.300,3429.824,0.00
7.317,3429.522,0.00
7.333,3427.856,0.00
7.350,3423.859,0.00
7.367,3418.355,0.00
7.383,3412.602,0.00
7.400,3405.849,0.00
7.417,3398.348,0.00
7.433,3391.129,0.00
7.450,3384.747,0.00
7.467,3378.779,0.00
7.483,3373.825,0.00
7.500,3368.095,0.00
7.517,3361.455,0.00
7.533,3355.834,0.00
7.550,3351.114,0.00
7.567,3344.270,0.00
7.583,3337.623,0.00
7.600,3330.277,0.00
7.617,3324.115,0.00
7.633,3318.621,0.00
7.650,3313.614,0.00
7.667,3306.369,0.00
7.683,3297.916,0.00
7.700,3290.837,0.00
7.717,3283.298,0.00
7.733,3276.413,0.00
7.750,3269.335,0.00
7.767,3262.635,0.00
7.783,3256.397,0.00
7.800,3249.402,0.00
7.817,3242.134,0.00
7.833,3234.186,0.00
7.850,3226.595,0.00
7.867,3219.681,0.00
7.883,3212.395,0.00
7.900,3204.889,0.00
7.917,3197.331,0.00
7.933,3191.675,0.00
7.950,3186.813,0.00
7.967,3180.892,0.00
7.983,3173.640,0.00
8.000,3165.566,0.00
8.017,3158.092,0.00
8.033,3151.991,0.00
8.050,3146.192,0.00
8.067,3139.693,0.00
8.083,3132.558,0.00
8.100,3126.270,0.00
8.117,3121.206,0.00
8.133,3116.013,0.00
8.150,3109.747,0.00
8.167,3102.702,0.00
8.183,3096.047,0.00
8.200,3089.573,0.00
8.217,3084.031,0.00
8.233,3078.715,0.00
8.250,3072.995,0.00
8.267,3066.960,0.00
8.283,3060.249,0.00
8.300,3053.042,0.00
8.317,3046.221,0.00
8.333,3040.447,0.00
8.350,3036.099,0.00
8.367,3031.231,0.00
8.383,3024.961,0.00
8.400,3018.715,0.00
8.417,3013.205,0.00
8.433,3009.703,0.00
8.450,3006.184,0.00
8.467,3003.356,0.00
8.483,3000.386,0.00
8.500,2997.636,0.00
8.517,2996.058,0.00
8.533,2995.047,0.00
8.550,2994.180,0.00
8.567,2994.187,0.00
8.583,2993.132,0.00
8.600,2992.251,0.00
8.617,2990.867,0.00
8.633,2990.594,0.00
8.650,2991.148,0.00
8.667,2992.276,0.00
8.683,2993.929,0.00
8.700,2994.494,0.00
8.717,2994.281,0.00
8.733,2994.094,0.00
8.750,2993.064,0.00
8.767,2992.166,0.00
8.783,2991.549,0.00
8.800,2990.735,0.00
8.817,2988.854,0.00
8.833,2985.468,0.00
8.850,2981.270,0.00
8.867,2976.611,0.00
8.883,2972.473,0.00
8.900,2969.547,0.00
8.917,2966.563,0.00
8.933,2962.933,0.00
8.950,2958.938,0.00
8.967,2954.495,0.00
8.983,2950.624,0.00
9.000,2947.927,0.00
9.017,2944.999,0.00
9.033,2942.048,0.00
9.050,2938.972,0.00
9.067,2936.030,0.00
9.083,2932.491,0.00
9.100,2929.908,0.00
9.117,2927.592,0.00
9.133,2924.785,0.00
9.150,2920.112,0.00
9.167,2921.531,0.00
9.183,2915.064,0.00
9.200,2903.624,0.00
9.217,2904.718,0.00
9.233,2927.857,0.00
9.250,2996.862,0.00
9.267,3104.109,0.00
9.283,3209.855,0.00
9.300,3277.989,0.00
9.317,3298.925,0.00
9.333,3297.214,0.00
9.350,3285.524,0.00
9.367,3280.921,0.00
9.383,3283.088,0.00
9.400,3277.364,0.00
9.417,3270.150,0.00
9.433,3262.397,0.00
9.450,3253.609,0.00
9.467,3244.289,0.00
9.483,3234.604,0.00
9.500,3226.169,0.00
9.517,3217.266,0.00
9.533,3206.374,0.00
9.550,3195.037,0.00
9.567,3184.195,0.00
9.583,3179.595,0.00
9.600,3184.423,0.00
9.617,3191.394,0.00
9.633,3187.979,0.00
9.650,3171.494,0.00
9.667,3144.555,0.00
9.683,3111.312,0.00
9.700,3088.433,0.00
9.717,3092.345,0.00
9.733,3130.146,0.00
9.750,3205.632,0.00
9.767,3307.112,0.00
9.783,3389.352,0.00
9.800,3421.078,0.00
9.817,3464.402,0.00
9.833,3510.733,0.00
9.850,3474.908,0.00
9.867,3280.891,0.00
9.883,2842.839,0.00
9.900,2248.473,0.00
9.917,1664.185,0.00
9.933,1211.078,0.00
9.950,891.820,0.00
9.967,622.954,0.00
9.983,426.932,0.00
10.000,277.039,0.00
10.017,174.708,0.00
10.033,135.400,0.00
10.050,76.927,0.00
10.067,34.420,0.00
10.083,6.911,0.00
10.100,-4.635,0.00
10.117,-5.884,0.00
10.133,-5.104,0.00
10.150,-4.807,0.00
10.167,-3.692,0.00
10.183,-2.759,0.00
10.200,-2.336,0.00
10.217,-2.091,0.00
10.233,-1.922,0.00
10.250,-1.693,0.00
10.267,-1.350,0.00
10.283,-1.159,0.00
10.300,-1.080,0.00
10.317,-0.983,0.00
10.333,-0.825,0.00
10.350,-0.681,0.00
10.367,-0.582,0.00
10.383,-0.448,0.00
10.400,-0.218,0.00
10.417,0.111,0.00
10.433,0.480,0.00
10.450,0.629,0.00
10.467,0.351,0.00
10.483,-0.136,0.00
10.500,-0.563,0.00
10.517,-0.751,0.00
10.533,-0.817,0.00
10.550,-1.113,0.00
10.567,-1.025,0.00
10.583,-0.436,0.00
10.600,0.269,0.00
10.617,0.620,0.00
10.633,0.286,0.00
10.650,-0.488,0.00
10.667,-1.157,0.00
10.683,-1.286,0.00
10.700,-0.882,0.00
10.717,-0.906,0.00
10.733,-0.886,0.00
10.750,-0.896,0.00
10.767,-0.898,0.00
10.783,-0.869,0.00
10.800,-0.880,0.00
10.817,-0.958,0.00
10.833,-1.030,0.00
10.850,-1.020,0.00
10.867,-0.940,0.00
10.883,-0.889,0.00
10.900,-0.886,0.00
10.917,-0.887,0.00
10.933,-0.867,0.00
10.950,-0.819,0.00
10.967,-0.763,0.00
10.983,-0.761,0.00
11.000,-0.775,0.00
11.017,-0.793,0.00
11.033,-0.796,0.00
11.050,-0.725,0.00
11.067,-0.590,0.00
11.083,-0.282,0.00
11.100,0.181,0.00
11.117,0.713,0.00
11.133,1.064,0.00
11.150,1.025,0.00
11.167,0.694,0.00
11.183,0.286,0.00
11.200,0.022,0.00
11.217,-0.033,0.00
11.233,-0.043,0.00
11.250,-0.083,0.00
11.267,-0.131,0.00
11.283,-0.204,0.00
11.300,-0.267,0.00
11.317,-0.301,0.00
11.333,-0.225,0.00
11.350,-0.084,0.00
11.367,-0.047,0.00
11.383,-0.127,0.00
11.400,-0.292,0.00
11.417,-0.460,0.00
11.433,-0.563,0.00
11.450,-0.649,0.00
11.467,-0.628,0.00
11.483,-0.444,0.00
11.500,-0.251,0.00
11.517,-0.022,0.00
11.533,0.456,0.00
11.550,0.889,0.00
11.567,0.821,0.00
11.583,0.175,0.00
11.600,-0.725,0.00
11.617,-1.512,0.00
11.633,-1.721,0.00
11.650,-1.420,0.00
11.667,-1.255,0.00
11.683,-1.307,0.00
11.700,-1.312,0.00
11.717,-1.264,0.00
11.733,-1.210,0.00
11.750,-1.147,0.00
11.767,-1.222,0.00
11.783,-1.323,0.00
11.800,-1.353,0.00
11.817,-1.277,0.00
11.833,-1.166,0.00
11.850,-1.114,0.00
11.867,-1.180,0.00
11.883,-1.328,0.00
11.900,-1.462,0.00
11.917,-1.549,0.00
11.933,-1.646,0.00
11.950,-1.706,0.00
11.967,-1.694,0.00
11.983,-1.573,0.00
12.000,-1.385,0.00
12.017,-1.307,0.00
12.033,-1.395,0.00
12.050,-1.559,0.00
12.067,-1.669,0.00
12.083,-1.647,0.00
12.100,-1.541,0.00
12.117,-1.476,0.00
12.133,-1.505,0.00
12.150,-1.601,0.00
12.167,-1.666,0.00
12.183,-1.773,0.00
12.200,-2.016,0.00
12.217,-2.133,0.00
12.233,-0.205,0.00
12.250,6.177,0.00
12.267,6.034,0.00
12.283,-14.988,0.00
12.300,11.607,0.00
12.317,246.682,0.00
12.333,713.796,0.00
12.350,1186.636,0.00
12.367,1360.846,0.00
12.383,1107.292,0.00
12.400,607.673,0.00
12.417,175.310,0.00
12.433,-6.993,0.00
12.450,-12.148,0.00
12.467,6.196,0.00
12.483,5.065,0.00
12.500,-0.464,0.00
12.517,-1.849,0.00
12.533,-1.582,0.00
12.550,-1.241,0.00
12.567,-1.062,0.00
12.583,-0.965,0.00
12.600,-0.769,0.00
12.617,-0.514,0.00
12.633,-0.325,0.00
12.650,-0.369,0.00
12.667,-0.623,0.00
12.683,-0.826,1.41
12.700,-0.826,1.43
12.717,-0.746,1.45
12.733,-0.751,1.47
12.750,-0.884,1.48
12.767,-0.974,1.50
12.783,-0.922,1.52
12.800,-0.837,1.54
12.817,-0.796,1.56
12.833,-0.825,1.58
12.850,-0.832,1.60
12.867,-0.744,1.62
12.883,-0.673,1.64
12.900,-0.650,1.66
12.917,-0.630,1.68
12.933,-0.621,1.70
12.950,-0.583,1.72
12.967,-0.460,1.74
12.983,-0.231,1.76
13.000,0.014,1.78
13.017,0.076,1.80
13.033,-0.095,1.82
13.050,-0.287,1.84
13.067,-0.381,1.86
13.083,-0.319,1.89
13.100,-0.079,1.91
13.117,0.075,1.93
13.133,0.101,1.95
13.150,0.017,1.97
13.167,-0.035,2.00
13.183,0.003,2.02
13.200,0.048,2.04
13.217,0.141,2.07
13.233,0.174,2.09
13.250,0.152,2.11
13.267,0.246,2.14
13.283,0.408,2.16
13.300,0.475,2.19
13.317,0.462,2.21
13.333,0.423,2.24
13.350,0.433,2.26
13.367,0.511,2.28
13.383,0.604,2.31
13.400,0.745,2.34
13.417,0.838,2.36
13.433,0.939,2.39
13.450,0.979,2.41
13.467,0.994,2.44
13.483,0.988,2.47
13.500,0.976,2.49
13.517,0.986,2.52
13.533,0.970,2.55
13.550,0.899,2.57
13.567,0.880,2.60
13.583,0.956,2.63
13.600,1.022,2.66
13.617,1.033,2.68
13.633,1.043,2.71
13.650,1.067,2.74
13.667,1.008,2.77
13.683,1.019,2.80
13.700,1.119,2.83
13.717,1.189,2.86
13.733,1.256,2.89
13.750,1.319,2.92
13.767,1.370,2.95
13.783,1.373,2.98
13.800,1.455,3.01
13.817,1.489,3.04
13.833,1.446,3.07
13.850,1.406,3.10
13.867,1.506,3.13
13.883,1.602,3.16
13.900,1.706,3.19
13.917,1.684,3.22
13.933,1.589,3.26
13.950,1.404,3.29
13.967,1.335,3.32
13.983,1.145,3.35
14.000,1.104,3.39
14.017,1.187,3.42
14.033,1.290,3.45
14.050,1.263,3.49
14.067,1.175,3.52
14.083,1.183,3.55
14.100,1.277,3.59
14.117,1.363,3.62
14.133,1.410,3.66
14.150,1.293,3.69
14.167,1.106,3.73
14.183,0.933,3.76
14.200,0.777,3.80
14.217,0.639,3.83
14.233,0.532,3.87
14.250,0.477,3.91
14.267,0.492,3.94
14.283,0.491,3.98
14.300,0.450,4.02
14.317,0.392,4.05
14.333,0.330,4.09
14.350,0.315,4.13
14.367,0.371,4.17
14.383,0.447,4.21
14.400,0.424,4.24
14.417,0.245,4.28
14.433,0.074,4.32
14.450,0.017,4.36
14.467,-0.048,4.40
14.483,-0.091,4.44
14.500,-0.115,4.48
14.517,-0.105,4.52
14.533,-0.115,4.56
14.550,-0.147,4.60
14.567,-0.260,4.64
14.583,-0.455,4.68
14.600,-0.559,4.72
14.617,-0.604,4.77
14.633,-0.683,4.81
14.650,-0.716,4.85
14.667,-0.663,4.89
14.683,-0.593,4.93
14.700,-0.696,4.98
14.717,-0.911,5.02
14.733,-1.134,5.06
14.750,-1.212,5.11
14.767,-1.350,5.15
14.783,-1.470,5.19
14.800,-1.421,5.24
14.817,-1.084,5.28
14.833,-0.572,5.33
14.850,0.112,5.37
14.867,1.036,5.42
14.883,1.996,5.46
14.900,2.684,5.51
14.917,2.928,5.56
14.933,2.533,5.60
14.950,1.776,5.65
14.967,1.029,5.70
14.983,0.632,5.74
15.000,0.311,5.79
15.017,-0.130,5.84
15.033,-0.591,5.89
15.050,-1.037,5.93
15.067,-1.374,5.98
15.083,-1.315,6.03
15.100,-0.580,6.08
15.117,0.984,6.13
15.133,3.334,6.18
15.150,6.106,6.23
15.167,8.642,6.28
15.183,10.427,6.33
15.200,11.413,6.38
15.217,11.790,6.43
15.233,11.889,6.48
15.250,11.825,6.53
15.267,11.680,6.58
15.283,11.735,6.63
15.300,12.302,6.69
15.317,13.508,6.74
15.333,15.117,6.79
15.350,17.230,6.84
15.367,19.958,6.90
15.383,22.630,6.95
15.400,24.285,7.00
15.417,23.897,7.06
15.433,21.094,7.11
15.450,16.913,7.17
15.467,13.596,7.22
15.483,12.136,7.28
15.500,12.438,7.33
15.517,13.568,7.39
15.533,15.127,7.44
15.550,16.865,7.50
15.567,18.722,7.55
15.583,20.592,7.61
15.600,21.752,7.67
15.617,22.311,7.73
15.633,25.016,7.78
15.650,31.619,7.84
15.667,41.406,7.90
15.683,58.963,7.96
15.700,93.432,8.02
15.717,145.123,8.07
15.733,203.656,8.13
15.750,257.197,8.19
15.767,295.647,8.25
15.783,311.908,8.31
15.800,304.341,8.37
15.817,274.174,8.43
15.833,223.958,8.49
15.850,163.370,8.55
15.867,107.536,8.62
15.883,65.162,8.68
15.900,35.738,8.74
15.917,16.481,8.80
15.933,5.060,8.86
15.950,-1.223,8.93
15.967,-4.614,8.99
15.983,-6.352,9.05
16.000,-7.124,9.12
16.017,-7.285,9.18
16.033,-7.163,9.24
16.050,-6.900,9.31
16.067,-6.513,9.37
16.083,-5.934,9.44
16.100,-5.461,9.50
16.117,-4.970,9.57
16.133,-4.578,9.63
16.150,-4.426,9.70
16.167,-4.419,9.77
16.183,-4.384,9.83
16.200,-4.305,9.90
16.217,-4.278,9.97
