VERSION=1.3
ExportFileName=PM AH 16_2025-05-14_13-24-16_labchip_PURE_Data_E3
SampleLabel=E3
SampleName=PM AH 16
SampleComment=
SampleAreaConcRatio=0.010927
SampleLowerMarkerTime=12.25
SampleUpperMarkerTime=-1.00
SamplePeakTimes=12.25,12.35,12.55,15.15,15.53,17.35,17.67,17.90,18.30,18.43,18.53,18.75,19.03,19.37,19.75,20.07,20.68,21.02,21.40,21.63,21.87,22.27,22.70,22.90,23.22,23.65,23.88,24.53,25.47,26.07,26.28,27.15
SamplePeakSizes=1.219,1.320,1.538,7.171,8.535,17.206,19.106,20.582,23.261,24.195,24.910,26.499,28.660,31.321,34.539,37.324,43.068,46.346,50.263,52.723,55.238,59.678,64.664,67.027,70.843,76.212,79.172,87.660,100.435,108.986,112.135,125.034
SamplePeakQuantities=,,,,,7.9676,2.7053,5.2752,57.6231,42.8055,46.8537,14.5757,12.7058,5.4742,23.5343,148.2810,147.2962,295.5356,59.1586,27.6902,9.4751,132.3230,16.4079,83.4983,14.3618,3.9978,15.8065,1.7401,62.0516,25.1037,13.7221,8.4154
PlateFileName=2025-05-14_13-24-16_labchip_PURE
PlateAssayName=HT Protein Express 200
PlateBarCode=N/A
WellAquisitionTime=5/14/2025 1:52:43 PM 
PlateDataFrequency=60
PlateDataStartTime=11.00
PlateDataEndTime=42.00
PlateConcUnits=ng/ul
PlateSizeUnits=kDa
PlateLadderSizes=1.40,15.90,20.40,28.90,48.40,68.40,119.20
ChipID=H296P-0563N-03
Operator=ACJS
DATA
Time,Value,Size
0.000,57.391,0.00
0.017,57.391,0.00
0.033,57.402,0.00
0.050,57.078,0.00
0.067,56.957,0.00
0.083,56.957,0.00
0.100,56.996,0.00
0.117,56.833,0.00
0.133,56.640,0.00
0.150,56.446,0.00
0.167,56.351,0.00
0.183,56.185,0.00
0.200,55.966,0.00
0.217,55.860,0.00
0.233,55.865,0.00
0.250,55.806,0.00
0.267,55.585,0.00
0.283,55.142,0.00
0.300,54.663,0.00
0.317,54.299,0.00
0.333,54.027,0.00
0.350,53.704,0.00
0.367,53.257,0.00
0.383,52.723,0.00
0.400,52.028,0.00
0.417,51.258,0.00
0.433,50.381,0.00
0.450,49.500,0.00
0.467,48.667,0.00
0.483,47.879,0.00
0.500,47.104,0.00
0.517,46.261,0.00
0.533,45.400,0.00
0.550,44.532,0.00
0.567,43.688,0.00
0.583,42.969,0.00
0.600,42.272,0.00
0.617,41.589,0.00
0.633,40.952,0.00
0.650,40.294,0.00
0.667,39.655,0.00
0.683,38.969,0.00
0.700,38.288,0.00
0.717,37.702,0.00
0.733,37.115,0.00
0.750,36.579,0.00
0.767,36.025,0.00
0.783,35.488,0.00
0.800,34.948,0.00
0.817,34.417,0.00
0.833,33.960,0.00
0.850,33.478,0.00
0.867,33.047,0.00
0.883,32.734,0.00
0.900,32.386,0.00
0.917,32.002,0.00
0.933,31.573,0.00
0.950,31.139,0.00
0.967,30.757,0.00
0.983,30.492,0.00
1.000,30.282,0.00
1.017,30.024,0.00
1.033,29.677,0.00
1.050,29.305,0.00
1.067,28.933,0.00
1.083,28.637,0.00
1.100,28.306,0.00
1.117,27.901,0.00
1.133,27.551,0.00
1.150,27.275,0.00
1.167,27.076,0.00
1.183,26.896,0.00
1.200,26.685,0.00
1.217,26.408,0.00
1.233,26.061,0.00
1.250,25.771,0.00
1.267,25.520,0.00
1.283,25.321,0.00
1.300,25.186,0.00
1.317,25.009,0.00
1.333,24.773,0.00
1.350,24.501,0.00
1.367,24.328,0.00
1.383,24.186,0.00
1.400,24.034,0.00
1.417,23.908,0.00
1.433,23.747,0.00
1.450,23.597,0.00
1.467,23.446,0.00
1.483,23.268,0.00
1.500,23.035,0.00
1.517,22.769,0.00
1.533,22.554,0.00
1.550,22.359,0.00
1.567,22.175,0.00
1.583,21.991,0.00
1.600,21.792,0.00
1.617,21.618,0.00
1.633,21.496,0.00
1.650,21.410,0.00
1.667,21.252,0.00
1.683,21.081,0.00
1.700,20.965,0.00
1.717,20.877,0.00
1.733,20.757,0.00
1.750,20.550,0.00
1.767,20.346,0.00
1.783,20.208,0.00
1.800,20.179,0.00
1.817,20.136,0.00
1.833,19.993,0.00
1.850,19.759,0.00
1.867,19.521,0.00
1.883,19.355,0.00
1.900,19.223,0.00
1.917,19.035,0.00
1.933,18.844,0.00
1.950,18.654,0.00
1.967,18.525,0.00
1.983,18.423,0.00
2.000,18.332,0.00
2.017,18.169,0.00
2.033,17.975,0.00
2.050,17.803,0.00
2.067,17.628,0.00
2.083,17.476,0.00
2.100,17.372,0.00
2.117,17.275,0.00
2.133,17.167,0.00
2.150,17.033,0.00
2.167,16.884,0.00
2.183,16.719,0.00
2.200,16.596,0.00
2.217,16.517,0.00
2.233,16.416,0.00
2.250,16.312,0.00
2.267,16.176,0.00
2.283,16.003,0.00
2.300,15.789,0.00
2.317,15.622,0.00
2.333,15.544,0.00
2.350,15.470,0.00
2.367,15.382,0.00
2.383,15.281,0.00
2.400,15.197,0.00
2.417,15.171,0.00
2.433,15.125,0.00
2.450,15.033,0.00
2.467,14.872,0.00
2.483,14.695,0.00
2.500,14.599,0.00
2.517,14.516,0.00
2.533,14.403,0.00
2.550,14.306,0.00
2.567,14.227,0.00
2.583,14.171,0.00
2.600,14.137,0.00
2.617,14.099,0.00
2.633,13.983,0.00
2.650,13.807,0.00
2.667,13.675,0.00
2.683,13.580,0.00
2.700,13.501,0.00
2.717,13.431,0.00
2.733,13.331,0.00
2.750,13.163,0.00
2.767,12.964,0.00
2.783,12.803,0.00
2.800,12.667,0.00
2.817,12.547,0.00
2.833,12.462,0.00
2.850,12.387,0.00
2.867,12.285,0.00
2.883,12.147,0.00
2.900,12.034,0.00
2.917,11.932,0.00
2.933,11.820,0.00
2.950,11.716,0.00
2.967,11.593,0.00
2.983,11.455,0.00
3.000,11.356,0.00
3.017,11.283,0.00
3.033,11.205,0.00
3.050,11.129,0.00
3.067,11.044,0.00
3.083,10.970,0.00
3.100,10.896,0.00
3.117,10.773,0.00
3.133,10.618,0.00
3.150,10.471,0.00
3.167,10.366,0.00
3.183,10.306,0.00
3.200,10.269,0.00
3.217,10.219,0.00
3.233,10.082,0.00
3.250,9.895,0.00
3.267,9.708,0.00
3.283,9.569,0.00
3.300,9.516,0.00
3.317,9.546,0.00
3.333,9.577,0.00
3.350,9.487,0.00
3.367,9.209,0.00
3.383,8.719,0.00
3.400,8.067,0.00
3.417,7.386,0.00
3.433,6.742,0.00
3.450,6.189,0.00
3.467,5.737,0.00
3.483,5.392,0.00
3.500,5.128,0.00
3.517,4.859,0.00
3.533,4.611,0.00
3.550,4.427,0.00
3.567,4.309,0.00
3.583,4.265,0.00
3.600,4.206,0.00
3.617,4.104,0.00
3.633,4.006,0.00
3.650,3.929,0.00
3.667,3.886,0.00
3.683,3.813,0.00
3.700,3.728,0.00
3.717,3.652,0.00
3.733,3.583,0.00
3.750,3.537,0.00
3.767,3.503,0.00
3.783,3.424,0.00
3.800,3.310,0.00
3.817,3.184,0.00
3.833,3.109,0.00
3.850,3.090,0.00
3.867,3.107,0.00
3.883,3.111,0.00
3.900,3.078,0.00
3.917,2.999,0.00
3.933,2.929,0.00
3.950,2.840,0.00
3.967,2.749,0.00
3.983,2.702,0.00
4.000,2.673,0.00
4.017,2.598,0.00
4.033,2.486,0.00
4.050,2.429,0.00
4.067,2.452,0.00
4.083,2.514,0.00
4.100,2.528,0.00
4.117,2.455,0.00
4.133,2.357,0.00
4.150,2.287,0.00
4.167,2.276,0.00
4.183,2.269,0.00
4.200,2.259,0.00
4.217,2.246,0.00
4.233,2.226,0.00
4.250,2.179,0.00
4.267,2.058,0.00
4.283,1.891,0.00
4.300,1.764,0.00
4.317,1.700,0.00
4.333,1.675,0.00
4.350,1.668,0.00
4.367,1.625,0.00
4.383,1.548,0.00
4.400,1.537,0.00
4.417,1.545,0.00
4.433,1.523,0.00
4.450,1.443,0.00
4.467,1.352,0.00
4.483,1.259,0.00
4.500,1.164,0.00
4.517,1.156,0.00
4.533,1.146,0.00
4.550,1.129,0.00
4.567,1.151,0.00
4.583,1.144,0.00
4.600,1.168,0.00
4.617,1.244,0.00
4.633,1.333,0.00
4.650,1.356,0.00
4.667,1.283,0.00
4.683,1.197,0.00
4.700,1.140,0.00
4.717,1.127,0.00
4.733,1.138,0.00
4.750,1.131,0.00
4.767,1.114,0.00
4.783,1.189,0.00
4.800,1.371,0.00
4.817,1.603,0.00
4.833,1.794,0.00
4.850,1.925,0.00
4.867,2.012,0.00
4.883,2.107,0.00
4.900,2.257,0.00
4.917,2.439,0.00
4.933,2.612,0.00
4.950,2.833,0.00
4.967,3.043,0.00
4.983,3.296,0.00
5.000,3.532,0.00
5.017,3.752,0.00
5.033,3.961,0.00
5.050,4.195,0.00
5.067,4.414,0.00
5.083,4.607,0.00
5.100,4.800,0.00
5.117,5.017,0.00
5.133,5.216,0.00
5.150,5.455,0.00
5.167,5.613,0.00
5.183,5.709,0.00
5.200,5.823,0.00
5.217,5.955,0.00
5.233,6.088,0.00
5.250,6.165,0.00
5.267,6.199,0.00
5.283,6.211,0.00
5.300,6.258,0.00
5.317,6.309,0.00
5.333,6.368,0.00
5.350,6.360,0.00
5.367,6.370,0.00
5.383,6.327,0.00
5.400,6.244,0.00
5.417,6.351,0.00
5.433,6.574,0.00
5.450,6.584,0.00
5.467,6.185,0.00
5.483,5.280,0.00
5.500,4.301,0.00
5.517,3.586,0.00
5.533,3.330,0.00
5.550,3.266,0.00
5.567,3.190,0.00
5.583,3.165,0.00
5.600,3.196,0.00
5.617,3.228,0.00
5.633,3.265,0.00
5.650,3.219,0.00
5.667,3.257,0.00
5.683,3.322,0.00
5.700,3.417,0.00
5.717,3.871,0.00
5.733,4.538,0.00
5.750,5.266,0.00
5.767,5.841,0.00
5.783,6.158,0.00
5.800,6.087,0.00
5.817,5.872,0.00
5.833,5.824,0.00
5.850,6.091,0.00
5.867,6.601,0.00
5.883,7.460,0.00
5.900,7.718,0.00
5.917,8.679,0.00
5.933,9.739,0.00
5.950,11.032,0.00
5.967,14.078,0.00
5.983,19.667,0.00
6.000,24.852,0.00
6.017,28.041,0.00
6.033,28.808,0.00
6.050,26.628,0.00
6.067,22.415,0.00
6.083,19.419,0.00
6.100,16.940,0.00
6.117,14.226,0.00
6.133,12.222,0.00
6.150,10.795,0.00
6.167,8.460,0.00
6.183,6.484,0.00
6.200,5.482,0.00
6.217,4.699,0.00
6.233,3.863,0.00
6.250,3.254,0.00
6.267,2.749,0.00
6.283,2.262,0.00
6.300,1.979,0.00
6.317,1.748,0.00
6.333,1.453,0.00
6.350,1.175,0.00
6.367,0.828,0.00
6.383,0.573,0.00
6.400,0.438,0.00
6.417,0.360,0.00
6.433,0.325,0.00
6.450,0.298,0.00
6.467,0.052,0.00
6.483,-0.116,0.00
6.500,-0.024,0.00
6.517,0.301,0.00
6.533,0.535,0.00
6.550,-2.406,0.00
6.567,-9.171,0.00
6.583,56.387,0.00
6.600,-20.134,0.00
6.617,-102.249,0.00
6.633,34.826,0.00
6.650,504.841,0.00
6.667,1176.002,0.00
6.683,1934.058,0.00
6.700,2587.872,0.00
6.717,3002.847,0.00
6.733,3224.513,0.00
6.750,3365.875,0.00
6.767,3304.572,0.00
6.783,3221.248,0.00
6.800,3205.775,0.00
6.817,3244.147,0.00
6.833,3240.267,0.00
6.850,3241.142,0.00
6.867,3240.307,0.00
6.883,3238.684,0.00
6.900,3238.797,0.00
6.917,3241.775,0.00
6.933,3247.071,0.00
6.950,3250.477,0.00
6.967,3253.234,0.00
6.983,3253.517,0.00
7.000,3252.019,0.00
7.017,3251.909,0.00
7.033,3253.132,0.00
7.050,3253.393,0.00
7.067,3252.486,0.00
7.083,3250.634,0.00
7.100,3249.136,0.00
7.117,3247.213,0.00
7.133,3247.603,0.00
7.150,3249.056,0.00
7.167,3249.802,0.00
7.183,3249.554,0.00
7.200,3247.491,0.00
7.217,3245.567,0.00
7.233,3244.818,0.00
7.250,3245.516,0.00
7.267,3246.219,0.00
7.283,3245.390,0.00
7.300,3244.114,0.00
7.317,3242.539,0.00
7.333,3241.495,0.00
7.350,3241.128,0.00
7.367,3241.027,0.00
7.383,3241.125,0.00
7.400,3238.591,0.00
7.417,3233.864,0.00
7.433,3227.263,0.00
7.450,3220.220,0.00
7.467,3214.583,0.00
7.483,3209.029,0.00
7.500,3202.558,0.00
7.517,3195.427,0.00
7.533,3188.888,0.00
7.550,3183.822,0.00
7.567,3178.584,0.00
7.583,3173.328,0.00
7.600,3166.312,0.00
7.617,3157.886,0.00
7.633,3151.217,0.00
7.650,3145.462,0.00
7.667,3139.116,0.00
7.683,3133.077,0.00
7.700,3126.449,0.00
7.717,3121.296,0.00
7.733,3116.954,0.00
7.750,3112.667,0.00
7.767,3107.172,0.00
7.783,3101.090,0.00
7.800,3095.108,0.00
7.817,3088.444,0.00
7.833,3081.794,0.00
7.850,3075.859,0.00
7.867,3070.257,0.00
7.883,3064.247,0.00
7.900,3057.573,0.00
7.917,3051.012,0.00
7.933,3045.051,0.00
7.950,3039.341,0.00
7.967,3033.539,0.00
7.983,3028.022,0.00
8.000,3022.199,0.00
8.017,3015.544,0.00
8.033,3008.019,0.00
8.050,2999.824,0.00
8.067,2992.163,0.00
8.083,2986.153,0.00
8.100,2980.188,0.00
8.117,2973.777,0.00
8.133,2966.478,0.00
8.150,2959.944,0.00
8.167,2953.668,0.00
8.183,2948.086,0.00
8.200,2942.799,0.00
8.217,2937.534,0.00
8.233,2931.764,0.00
8.250,2925.638,0.00
8.267,2919.394,0.00
8.283,2913.654,0.00
8.300,2908.714,0.00
8.317,2904.663,0.00
8.333,2900.188,0.00
8.350,2894.634,0.00
8.367,2888.197,0.00
8.383,2882.267,0.00
8.400,2877.697,0.00
8.417,2873.678,0.00
8.433,2869.816,0.00
8.450,2864.699,0.00
8.467,2859.809,0.00
8.483,2855.939,0.00
8.500,2853.244,0.00
8.517,2850.312,0.00
8.533,2847.597,0.00
8.550,2845.931,0.00
8.567,2844.188,0.00
8.583,2843.205,0.00
8.600,2843.231,0.00
8.617,2842.752,0.00
8.633,2840.902,0.00
8.650,2837.892,0.00
8.667,2834.637,0.00
8.683,2832.445,0.00
8.700,2832.430,0.00
8.717,2834.133,0.00
8.733,2834.804,0.00
8.750,2833.724,0.00
8.767,2831.235,0.00
8.783,2827.602,0.00
8.800,2824.166,0.00
8.817,2820.845,0.00
8.833,2816.831,0.00
8.850,2812.511,0.00
8.867,2807.740,0.00
8.883,2803.957,0.00
8.900,2801.122,0.00
8.917,2798.227,0.00
8.933,2794.551,0.00
8.950,2790.259,0.00
8.967,2786.234,0.00
8.983,2782.349,0.00
9.000,2779.179,0.00
9.017,2776.072,0.00
9.033,2771.823,0.00
9.050,2767.942,0.00
9.067,2764.515,0.00
9.083,2760.845,0.00
9.100,2757.280,0.00
9.117,2754.076,0.00
9.133,2749.928,0.00
9.150,2745.261,0.00
9.167,2741.221,0.00
9.183,2740.503,0.00
9.200,2738.977,0.00
9.217,2729.575,0.00
9.233,2720.833,0.00
9.250,2727.099,0.00
9.267,2766.375,0.00
9.283,2846.436,0.00
9.300,2944.579,0.00
9.317,3024.586,0.00
9.333,3063.922,0.00
9.350,3069.330,0.00
9.367,3058.439,0.00
9.383,3046.272,0.00
9.400,3042.765,0.00
9.417,3040.193,0.00
9.433,3033.849,0.00
9.450,3027.022,0.00
9.467,3019.540,0.00
9.483,3012.624,0.00
9.500,3006.657,0.00
9.517,3002.269,0.00
9.533,2999.657,0.00
9.550,2996.707,0.00
9.567,2990.649,0.00
9.583,2983.848,0.00
9.600,2980.454,0.00
9.617,2985.857,0.00
9.633,3005.441,0.00
9.650,3030.770,0.00
9.667,3044.893,0.00
9.683,3040.454,0.00
9.700,3018.581,0.00
9.717,2983.071,0.00
9.733,2953.878,0.00
9.750,2951.576,0.00
9.767,2986.521,0.00
9.783,3062.491,0.00
9.800,3157.481,0.00
9.817,3241.275,0.00
9.833,3274.342,0.00
9.850,3261.680,0.00
9.867,3321.652,0.00
9.883,3413.964,0.00
9.900,3277.305,0.00
9.917,2789.264,0.00
9.933,2076.700,0.00
9.950,1382.483,0.00
9.967,902.902,0.00
9.983,664.427,0.00
10.000,507.165,0.00
10.017,310.985,0.00
10.033,170.331,0.00
10.050,120.672,0.00
10.067,74.960,0.00
10.083,30.507,0.00
10.100,4.438,0.00
10.117,-7.828,0.00
10.133,-8.837,0.00
10.150,-6.652,0.00
10.167,-5.183,0.00
10.183,-4.001,0.00
10.200,-3.384,0.00
10.217,-3.185,0.00
10.233,-2.633,0.00
10.250,-1.822,0.00
10.267,-1.424,0.00
10.283,-1.417,0.00
10.300,-1.529,0.00
10.317,-1.657,0.00
10.333,-1.663,0.00
10.350,-1.508,0.00
10.367,-1.413,0.00
10.383,-1.243,0.00
10.400,-0.960,0.00
10.417,-0.519,0.00
10.433,-0.141,0.00
10.450,0.010,0.00
10.467,-0.199,0.00
10.483,-0.683,0.00
10.500,-1.179,0.00
10.517,-1.198,0.00
10.533,-0.348,0.00
10.550,0.847,0.00
10.567,1.467,0.00
10.583,1.237,0.00
10.600,0.340,0.00
10.617,-0.734,0.00
10.633,-1.365,0.00
10.650,-1.426,0.00
10.667,-1.418,0.00
10.683,-1.505,0.00
10.700,-1.486,0.00
10.717,-1.439,0.00
10.733,-1.461,0.00
10.750,-1.506,0.00
10.767,-1.567,0.00
10.783,-1.564,0.00
10.800,-1.455,0.00
10.817,-1.319,0.00
10.833,-1.232,0.00
10.850,-1.244,0.00
10.867,-1.271,0.00
10.883,-1.293,0.00
10.900,-1.449,0.00
10.917,-1.042,0.00
10.933,-0.941,0.00
10.950,-2.216,0.00
10.967,2.588,0.00
10.983,12.742,0.00
11.000,21.531,0.00
11.017,22.934,0.00
11.033,16.233,0.00
11.050,5.968,0.00
11.067,-1.135,0.00
11.083,-1.344,0.00
11.100,0.623,0.00
11.117,-0.572,0.00
11.133,-0.607,0.00
11.150,-0.436,0.00
11.167,-0.434,0.00
11.183,-0.485,0.00
11.200,-0.522,0.00
11.217,-0.548,0.00
11.233,-0.521,0.00
11.250,-0.401,0.00
11.267,-0.233,0.00
11.283,-0.096,0.00
11.300,-0.162,0.00
11.317,-0.312,0.00
11.333,-0.511,0.00
11.350,-0.599,0.00
11.367,-0.663,0.00
11.383,-0.692,0.00
11.400,-0.735,0.00
11.417,-0.754,0.00
11.433,-0.689,0.00
11.450,-0.676,0.00
11.467,-0.561,0.00
11.483,-0.140,0.00
11.500,0.529,0.00
11.517,1.388,0.00
11.533,2.046,0.00
11.550,2.042,0.00
11.567,1.232,0.00
11.583,0.086,0.00
11.600,-0.914,0.00
11.617,-1.522,0.00
11.633,-1.636,0.00
11.650,-1.668,0.00
11.667,-1.874,0.00
11.683,-2.017,0.00
11.700,-2.181,0.00
11.717,-2.193,0.00
11.733,-1.691,0.00
11.750,-1.163,0.00
11.767,-0.649,0.00
11.783,1.068,0.00
11.800,4.139,0.00
11.817,6.833,0.00
11.833,7.468,0.00
11.850,5.578,0.00
11.867,2.121,0.00
11.883,-0.766,0.00
11.900,-1.638,0.00
11.917,-1.629,0.00
11.933,-1.806,0.00
11.950,-1.946,0.00
11.967,-1.970,0.00
11.983,-1.903,0.00
12.000,-1.646,0.00
12.017,-1.386,0.00
12.033,-1.217,0.00
12.050,-1.216,0.00
12.067,-1.326,0.00
12.083,-1.522,0.00
12.100,-1.638,0.00
12.117,-1.821,0.00
12.133,-2.108,0.00
12.150,-2.118,0.00
12.167,0.449,0.00
12.183,5.986,0.00
12.200,2.783,0.00
12.217,-8.495,0.00
12.233,69.714,0.00
12.250,379.696,0.00
12.267,865.434,0.00
12.283,1245.644,0.00
12.300,1260.220,0.00
12.317,895.501,0.00
12.333,396.952,0.00
12.350,57.493,0.00
12.367,-30.817,0.00
12.383,-2.473,0.00
12.400,9.807,0.00
12.417,4.249,0.00
12.433,2.331,0.00
12.450,2.622,0.00
12.467,1.770,0.00
12.483,0.622,1.41
12.500,0.417,1.42
12.517,0.841,1.44
12.533,1.790,1.46
12.550,4.745,1.48
12.567,9.585,1.50
12.583,15.483,1.52
12.600,18.899,1.54
12.617,17.855,1.56
12.633,12.981,1.58
12.650,7.132,1.59
12.667,2.897,1.61
12.683,0.680,1.63
12.700,-0.020,1.65
12.717,-0.331,1.67
12.733,-0.883,1.70
12.750,-1.283,1.72
12.767,-1.651,1.74
12.783,-1.772,1.76
12.800,-1.772,1.78
12.817,-1.707,1.80
12.833,-1.596,1.82
12.850,-1.398,1.84
12.867,-1.286,1.87
12.883,-1.245,1.89
12.900,-1.309,1.91
12.917,-1.398,1.93
12.933,-1.341,1.96
12.950,-1.132,1.98
12.967,-0.867,2.00
12.983,-0.662,2.02
13.000,-0.626,2.05
13.017,-0.806,2.07
13.033,-1.097,2.10
13.050,-1.214,2.12
13.067,-1.179,2.14
13.083,-1.088,2.17
13.100,-0.941,2.19
13.117,-0.867,2.22
13.133,-0.840,2.24
13.150,-0.803,2.27
13.167,-0.698,2.29
13.183,-0.614,2.32
13.200,-0.479,2.34
13.217,-0.294,2.37
13.233,-0.275,2.40
13.250,-0.218,2.42
13.267,-0.044,2.45
13.283,0.239,2.48
13.300,0.447,2.50
13.317,0.368,2.53
13.333,0.116,2.56
13.350,-0.097,2.59
13.367,-0.089,2.61
13.383,-0.058,2.64
13.400,-0.206,2.67
13.417,-0.280,2.70
13.433,-0.368,2.73
13.450,-0.398,2.76
13.467,-0.441,2.79
13.483,-0.562,2.82
13.500,-0.637,2.85
13.517,-0.573,2.88
13.533,-0.414,2.91
13.550,-0.272,2.94
13.567,-0.197,2.97
13.583,-0.169,3.00
13.600,-0.179,3.03
13.617,-0.208,3.06
13.633,-0.268,3.09
13.650,-0.244,3.12
13.667,-0.175,3.15
13.683,-0.087,3.19
13.700,-0.030,3.22
13.717,-0.027,3.25
13.733,-0.053,3.28
13.750,-0.095,3.32
13.767,-0.020,3.35
13.783,0.022,3.38
13.800,0.010,3.42
13.817,0.041,3.45
13.833,0.087,3.48
13.850,0.255,3.52
13.867,0.373,3.55
13.883,0.404,3.59
13.900,0.413,3.62
13.917,0.420,3.66
13.933,0.466,3.69
13.950,0.398,3.73
13.967,0.259,3.77
13.983,0.132,3.80
14.000,0.038,3.84
14.017,0.011,3.88
14.033,0.038,3.91
14.050,0.169,3.95
14.067,0.267,3.99
14.083,0.261,4.03
14.100,0.164,4.06
14.117,0.027,4.10
14.133,-0.050,4.14
14.150,-0.052,4.18
14.167,-0.108,4.22
14.183,-0.221,4.26
14.200,-0.416,4.30
14.217,-0.465,4.34
14.233,-0.219,4.38
14.250,0.224,4.42
14.267,0.642,4.46
14.283,0.943,4.50
14.300,1.008,4.54
14.317,1.037,4.58
14.333,1.264,4.62
14.350,2.027,4.66
14.367,3.086,4.71
14.383,4.124,4.75
14.400,4.846,4.79
14.417,4.751,4.83
14.433,3.853,4.88
14.450,2.633,4.92
14.467,1.458,4.96
14.483,0.599,5.01
14.500,-0.011,5.05
14.517,-0.468,5.09
14.533,-0.886,5.14
14.550,-1.357,5.18
14.567,-1.716,5.23
14.583,-2.013,5.27
14.600,-2.218,5.32
14.617,-2.210,5.37
14.633,-1.939,5.41
14.650,-1.432,5.46
14.667,-0.805,5.51
14.683,-0.324,5.55
14.700,-0.097,5.60
14.717,-0.063,5.65
14.733,-0.069,5.70
14.750,-0.088,5.74
14.767,-0.174,5.79
14.783,-0.279,5.84
14.800,-0.454,5.89
14.817,-0.737,5.94
14.833,-1.032,5.99
14.850,-1.326,6.04
14.867,-1.474,6.09
14.883,-1.227,6.14
14.900,-0.394,6.19
14.917,1.108,6.24
14.933,3.099,6.29
14.950,5.146,6.34
14.967,6.977,6.39
14.983,8.376,6.44
15.000,9.170,6.50
15.017,9.391,6.55
15.033,9.081,6.60
15.050,8.287,6.65
15.067,7.377,6.71
15.083,6.786,6.76
15.100,6.843,6.82
15.117,7.620,6.87
15.133,8.963,6.92
15.150,10.581,6.98
15.167,12.392,7.03
15.183,14.241,7.09
15.200,15.432,7.14
15.217,15.169,7.20
15.233,13.211,7.26
15.250,10.178,7.31
15.267,7.401,7.37
15.283,6.036,7.43
15.300,5.965,7.48
15.317,6.423,7.54
15.333,7.183,7.60
15.350,8.200,7.66
15.367,9.350,7.72
15.383,10.416,7.77
15.400,11.084,7.83
15.417,11.557,7.89
15.433,13.112,7.95
15.450,17.268,8.01
15.467,23.633,8.07
15.483,33.068,8.13
15.500,50.427,8.19
15.517,78.512,8.25
15.533,113.353,8.32
15.550,146.401,8.38
15.567,169.978,8.44
15.583,181.388,8.50
15.600,182.049,8.56
15.617,172.774,8.63
15.633,151.844,8.69
15.650,120.275,8.75
15.667,85.018,8.82
15.683,53.753,8.88
15.700,30.173,8.95
15.717,14.039,9.01
15.733,3.494,9.07
15.750,-2.995,9.14
15.767,-6.449,9.21
15.783,-7.972,9.27
15.800,-8.550,9.34
15.817,-8.437,9.40
15.833,-7.537,9.47
15.850,-6.407,9.54
15.867,-5.663,9.60
15.883,-5.426,9.67
15.900,-5.524,9.74
15.917,-5.716,9.81
15.933,-5.702,9.88
15.950,-5.467,9.95
