VERSION=1.3
ExportFileName=PM HZ 2_2025-05-14_13-24-16_labchip_PURE_Data_B4
SampleLabel=B4
SampleName=PM HZ 2
SampleComment=
SampleAreaConcRatio=0.011875
SampleLowerMarkerTime=12.28
SampleUpperMarkerTime=-1.00
SamplePeakTimes=12.28,15.87,15.95,16.15,16.37,16.60,16.85,17.02,17.40,17.72,17.95,18.22,18.33,18.47,18.57,18.80,18.95,19.12,19.42,19.78,20.07,20.68,20.95,21.45,22.25,22.92,23.97,24.78,25.55,26.13,27.22,28.23
SamplePeakSizes=1.298,9.643,9.978,10.813,11.766,12.850,14.079,14.937,17.029,18.885,20.326,22.050,22.830,23.741,24.438,26.109,27.216,28.477,30.828,33.841,36.274,41.881,44.437,49.436,57.986,65.608,78.481,89.181,99.735,108.072,124.209,140.052
SamplePeakQuantities=,,,,24.0278,7.4225,14.9973,7.0012,96.7363,19.9913,45.2760,61.4333,382.1331,345.3137,628.8239,109.0758,29.6102,85.4635,42.3439,182.5626,1590.0557,1641.8172,2132.1677,1204.7880,2058.1339,1897.5383,294.8024,76.8231,662.1902,418.2104,54.5362,9.4036
PlateFileName=2025-05-14_13-24-16_labchip_PURE
PlateAssayName=HT Protein Express 200
PlateBarCode=N/A
WellAquisitionTime=5/14/2025 1:56:53 PM 
PlateDataFrequency=60
PlateDataStartTime=11.00
PlateDataEndTime=42.00
PlateConcUnits=ng/ul
PlateSizeUnits=kDa
PlateLadderSizes=1.40,15.90,20.40,28.90,48.40,68.40,119.20
ChipID=H296P-0563N-03
Operator=ACJS
DATA
Time,Value,Size
0.000,32.428,0.00
0.017,32.428,0.00
0.033,32.428,0.00
0.050,32.444,0.00
0.067,32.351,0.00
0.083,32.294,0.00
0.100,32.275,0.00
0.117,32.295,0.00
0.133,32.205,0.00
0.150,32.062,0.00
0.167,31.986,0.00
0.183,31.817,0.00
0.200,31.933,0.00
0.217,32.068,0.00
0.233,32.217,0.00
0.250,32.251,0.00
0.267,32.211,0.00
0.283,32.289,0.00
0.300,32.299,0.00
0.317,32.126,0.00
0.333,31.871,0.00
0.350,31.460,0.00
0.367,31.193,0.00
0.383,30.898,0.00
0.400,30.622,0.00
0.417,30.139,0.00
0.433,29.684,0.00
0.450,29.238,0.00
0.467,28.726,0.00
0.483,27.938,0.00
0.500,27.164,0.00
0.517,26.326,0.00
0.533,25.510,0.00
0.550,24.744,0.00
0.567,23.915,0.00
0.583,22.991,0.00
0.600,22.200,0.00
0.617,21.447,0.00
0.633,20.739,0.00
0.650,19.927,0.00
0.667,19.182,0.00
0.683,18.479,0.00
0.700,17.828,0.00
0.717,17.260,0.00
0.733,16.673,0.00
0.750,16.089,0.00
0.767,15.579,0.00
0.783,15.131,0.00
0.800,14.675,0.00
0.817,14.123,0.00
0.833,13.609,0.00
0.850,13.192,0.00
0.867,12.839,0.00
0.883,12.469,0.00
0.900,12.054,0.00
0.917,11.661,0.00
0.933,11.264,0.00
0.950,10.933,0.00
0.967,10.602,0.00
0.983,10.240,0.00
1.000,9.914,0.00
1.017,9.672,0.00
1.033,9.488,0.00
1.050,9.274,0.00
1.067,9.034,0.00
1.083,8.759,0.00
1.100,8.451,0.00
1.117,8.168,0.00
1.133,7.934,0.00
1.150,7.751,0.00
1.167,7.560,0.00
1.183,7.356,0.00
1.200,7.178,0.00
1.217,7.033,0.00
1.233,6.852,0.00
1.250,6.656,0.00
1.267,6.465,0.00
1.283,6.241,0.00
1.300,6.032,0.00
1.317,5.844,0.00
1.333,5.615,0.00
1.350,5.417,0.00
1.367,5.314,0.00
1.383,5.223,0.00
1.400,5.086,0.00
1.417,4.967,0.00
1.433,4.855,0.00
1.450,4.706,0.00
1.467,4.556,0.00
1.483,4.407,0.00
1.500,4.221,0.00
1.517,4.030,0.00
1.533,3.856,0.00
1.550,3.700,0.00
1.567,3.572,0.00
1.583,3.503,0.00
1.600,3.449,0.00
1.617,3.360,0.00
1.633,3.276,0.00
1.650,3.200,0.00
1.667,3.088,0.00
1.683,2.947,0.00
1.700,2.811,0.00
1.717,2.713,0.00
1.733,2.645,0.00
1.750,2.589,0.00
1.767,2.556,0.00
1.783,2.548,0.00
1.800,2.550,0.00
1.817,2.539,0.00
1.833,2.490,0.00
1.850,2.403,0.00
1.867,2.299,0.00
1.883,2.182,0.00
1.900,2.086,0.00
1.917,2.026,0.00
1.933,2.003,0.00
1.950,1.967,0.00
1.967,1.879,0.00
1.983,1.724,0.00
2.000,1.598,0.00
2.017,1.530,0.00
2.033,1.515,0.00
2.050,1.505,0.00
2.067,1.498,0.00
2.083,1.442,0.00
2.100,1.367,0.00
2.117,1.270,0.00
2.133,1.131,0.00
2.150,0.988,0.00
2.167,0.923,0.00
2.183,0.839,0.00
2.200,0.796,0.00
2.217,0.773,0.00
2.233,0.756,0.00
2.250,0.683,0.00
2.267,0.646,0.00
2.283,0.596,0.00
2.300,0.526,0.00
2.317,0.493,0.00
2.333,0.457,0.00
2.350,0.357,0.00
2.367,0.242,0.00
2.383,0.160,0.00
2.400,0.073,0.00
2.417,-0.026,0.00
2.433,-0.106,0.00
2.450,-0.151,0.00
2.467,-0.132,0.00
2.483,-0.132,0.00
2.500,-0.199,0.00
2.517,-0.229,0.00
2.533,-0.272,0.00
2.550,-0.277,0.00
2.567,-0.314,0.00
2.583,-0.434,0.00
2.600,-0.619,0.00
2.617,-0.686,0.00
2.633,-0.669,0.00
2.650,-0.650,0.00
2.667,-0.703,0.00
2.683,-0.722,0.00
2.700,-0.833,0.00
2.717,-0.843,0.00
2.733,-0.838,0.00
2.750,-0.916,0.00
2.767,-1.047,0.00
2.783,-1.108,0.00
2.800,-1.162,0.00
2.817,-1.139,0.00
2.833,-1.146,0.00
2.850,-1.183,0.00
2.867,-1.267,0.00
2.883,-1.302,0.00
2.900,-1.330,0.00
2.917,-1.395,0.00
2.933,-1.473,0.00
2.950,-1.458,0.00
2.967,-1.459,0.00
2.983,-1.451,0.00
3.000,-1.503,0.00
3.017,-1.583,0.00
3.033,-1.696,0.00
3.050,-1.756,0.00
3.067,-1.766,0.00
3.083,-1.809,0.00
3.100,-1.879,0.00
3.117,-1.932,0.00
3.133,-2.016,0.00
3.150,-2.031,0.00
3.167,-2.013,0.00
3.183,-2.000,0.00
3.200,-2.084,0.00
3.217,-2.182,0.00
3.233,-2.285,0.00
3.250,-2.364,0.00
3.267,-2.433,0.00
3.283,-2.475,0.00
3.300,-2.546,0.00
3.317,-2.587,0.00
3.333,-2.653,0.00
3.350,-2.725,0.00
3.367,-2.769,0.00
3.383,-2.783,0.00
3.400,-2.903,0.00
3.417,-3.245,0.00
3.433,-3.761,0.00
3.450,-4.297,0.00
3.467,-4.795,0.00
3.483,-5.220,0.00
3.500,-5.613,0.00
3.517,-6.006,0.00
3.533,-6.333,0.00
3.550,-6.575,0.00
3.567,-6.755,0.00
3.583,-6.925,0.00
3.600,-7.069,0.00
3.617,-7.201,0.00
3.633,-7.344,0.00
3.650,-7.471,0.00
3.667,-7.556,0.00
3.683,-7.622,0.00
3.700,-7.679,0.00
3.717,-7.747,0.00
3.733,-7.771,0.00
3.750,-7.754,0.00
3.767,-7.712,0.00
3.783,-7.681,0.00
3.800,-7.684,0.00
3.817,-7.732,0.00
3.833,-7.806,0.00
3.850,-7.854,0.00
3.867,-7.877,0.00
3.883,-7.883,0.00
3.900,-7.838,0.00
3.917,-7.782,0.00
3.933,-7.748,0.00
3.950,-7.756,0.00
3.967,-7.815,0.00
3.983,-7.890,0.00
4.000,-7.956,0.00
4.017,-7.971,0.00
4.033,-7.929,0.00
4.050,-7.848,0.00
4.067,-7.771,0.00
4.083,-7.759,0.00
4.100,-7.787,0.00
4.117,-7.804,0.00
4.133,-7.807,0.00
4.150,-7.792,0.00
4.167,-7.792,0.00
4.183,-7.801,0.00
4.200,-7.816,0.00
4.217,-7.825,0.00
4.233,-7.894,0.00
4.250,-8.015,0.00
4.267,-8.119,0.00
4.283,-8.124,0.00
4.300,-8.085,0.00
4.317,-8.029,0.00
4.333,-8.020,0.00
4.350,-8.038,0.00
4.367,-8.070,0.00
4.383,-8.049,0.00
4.400,-8.062,0.00
4.417,-8.091,0.00
4.433,-8.111,0.00
4.450,-8.057,0.00
4.467,-8.038,0.00
4.483,-8.043,0.00
4.500,-8.078,0.00
4.517,-8.075,0.00
4.533,-8.020,0.00
4.550,-7.938,0.00
4.567,-7.963,0.00
4.583,-8.044,0.00
4.600,-8.085,0.00
4.617,-8.068,0.00
4.633,-8.022,0.00
4.650,-7.987,0.00
4.667,-7.952,0.00
4.683,-7.888,0.00
4.700,-7.777,0.00
4.717,-7.659,0.00
4.733,-7.608,0.00
4.750,-7.517,0.00
4.767,-7.433,0.00
4.783,-7.358,0.00
4.800,-7.234,0.00
4.817,-7.159,0.00
4.833,-7.057,0.00
4.850,-6.936,0.00
4.867,-6.794,0.00
4.883,-6.587,0.00
4.900,-6.370,0.00
4.917,-6.107,0.00
4.933,-5.866,0.00
4.950,-5.620,0.00
4.967,-5.290,0.00
4.983,-5.014,0.00
5.000,-4.742,0.00
5.017,-4.511,0.00
5.033,-4.307,0.00
5.050,-4.072,0.00
5.067,-3.856,0.00
5.083,-3.653,0.00
5.100,-3.458,0.00
5.117,-3.252,0.00
5.133,-2.973,0.00
5.150,-2.786,0.00
5.167,-2.601,0.00
5.183,-2.495,0.00
5.200,-2.370,0.00
5.217,-2.272,0.00
5.233,-2.161,0.00
5.250,-2.026,0.00
5.267,-1.882,0.00
5.283,-1.752,0.00
5.300,-1.626,0.00
5.317,-1.469,0.00
5.333,-1.302,0.00
5.350,-1.192,0.00
5.367,-1.104,0.00
5.383,-1.088,0.00
5.400,-1.106,0.00
5.417,-1.150,0.00
5.433,-1.189,0.00
5.450,-1.077,0.00
5.467,-1.026,0.00
5.483,-1.107,0.00
5.500,-1.383,0.00
5.517,-1.775,0.00
5.533,-2.201,0.00
5.550,-2.520,0.00
5.567,-2.717,0.00
5.583,-2.822,0.00
5.600,-2.883,0.00
5.617,-2.745,0.00
5.633,-2.663,0.00
5.650,-2.554,0.00
5.667,-2.374,0.00
5.683,-2.184,0.00
5.700,-2.184,0.00
5.717,-2.283,0.00
5.733,-2.444,0.00
5.750,-2.570,0.00
5.767,-2.640,0.00
5.783,-2.595,0.00
5.800,-2.624,0.00
5.817,-2.688,0.00
5.833,-2.721,0.00
5.850,-2.745,0.00
5.867,-2.708,0.00
5.883,-2.585,0.00
5.900,-2.514,0.00
5.917,-2.554,0.00
5.933,-2.691,0.00
5.950,-2.682,0.00
5.967,-2.433,0.00
5.983,-2.123,0.00
6.000,-2.021,0.00
6.017,-2.216,0.00
6.033,-2.553,0.00
6.050,-2.804,0.00
6.067,-2.868,0.00
6.083,-2.848,0.00
6.100,-2.874,0.00
6.117,-2.904,0.00
6.133,-2.905,0.00
6.150,-2.958,0.00
6.167,-3.074,0.00
6.183,-3.245,0.00
6.200,-3.380,0.00
6.217,-3.413,0.00
6.233,-3.397,0.00
6.250,-3.403,0.00
6.267,-3.482,0.00
6.283,-3.522,0.00
6.300,-3.489,0.00
6.317,-3.363,0.00
6.333,-3.185,0.00
6.350,-3.058,0.00
6.367,-2.928,0.00
6.383,-2.817,0.00
6.400,-2.771,0.00
6.417,-2.861,0.00
6.433,-3.103,0.00
6.450,-3.432,0.00
6.467,-3.793,0.00
6.483,-3.995,0.00
6.500,-4.063,0.00
6.517,-4.129,0.00
6.533,-4.238,0.00
6.550,-4.375,0.00
6.567,-4.490,0.00
6.583,-6.849,0.00
6.600,-6.490,0.00
6.617,15.422,0.00
6.633,3.693,0.00
6.650,-45.867,0.00
6.667,6.881,0.00
6.683,236.462,0.00
6.700,845.831,0.00
6.717,1809.942,0.00
6.733,2774.431,0.00
6.750,3374.018,0.00
6.767,3514.024,0.00
6.783,3378.250,0.00
6.800,3189.655,0.00
6.817,3129.329,0.00
6.833,3183.278,0.00
6.850,3161.399,0.00
6.867,3149.273,0.00
6.883,3151.931,0.00
6.900,3154.960,0.00
6.917,3157.482,0.00
6.933,3157.895,0.00
6.950,3157.147,0.00
6.967,3157.000,0.00
6.983,3157.136,0.00
7.000,3157.274,0.00
7.017,3157.134,0.00
7.033,3156.689,0.00
7.050,3157.588,0.00
7.067,3159.594,0.00
7.083,3162.105,0.00
7.100,3163.498,0.00
7.117,3164.981,0.00
7.133,3164.878,0.00
7.150,3164.123,0.00
7.167,3163.892,0.00
7.183,3162.828,0.00
7.200,3161.504,0.00
7.217,3160.850,0.00
7.233,3160.342,0.00
7.250,3159.344,0.00
7.267,3159.190,0.00
7.283,3160.039,0.00
7.300,3159.951,0.00
7.317,3160.481,0.00
7.333,3161.277,0.00
7.350,3160.398,0.00
7.367,3159.417,0.00
7.383,3156.691,0.00
7.400,3152.328,0.00
7.417,3147.326,0.00
7.433,3142.389,0.00
7.450,3137.348,0.00
7.467,3131.985,0.00
7.483,3125.926,0.00
7.500,3119.584,0.00
7.517,3113.278,0.00
7.533,3108.055,0.00
7.550,3100.847,0.00
7.567,3092.631,0.00
7.583,3085.093,0.00
7.600,3078.012,0.00
7.617,3072.680,0.00
7.633,3066.753,0.00
7.650,3059.164,0.00
7.667,3051.988,0.00
7.683,3045.050,0.00
7.700,3039.823,0.00
7.717,3034.802,0.00
7.733,3028.702,0.00
7.750,3022.184,0.00
7.767,3015.898,0.00
7.783,3010.786,0.00
7.800,3005.606,0.00
7.817,2999.733,0.00
7.833,2993.709,0.00
7.850,2986.954,0.00
7.867,2981.360,0.00
7.883,2976.466,0.00
7.900,2970.508,0.00
7.917,2965.293,0.00
7.933,2960.605,0.00
7.950,2956.327,0.00
7.967,2951.028,0.00
7.983,2945.039,0.00
8.000,2938.385,0.00
8.017,2931.736,0.00
8.033,2926.652,0.00
8.050,2922.121,0.00
8.067,2916.644,0.00
8.083,2911.329,0.00
8.100,2906.353,0.00
8.117,2900.483,0.00
8.133,2893.631,0.00
8.150,2887.544,0.00
8.167,2881.630,0.00
8.183,2875.570,0.00
8.200,2870.754,0.00
8.217,2865.661,0.00
8.233,2860.064,0.00
8.250,2854.153,0.00
8.267,2847.616,0.00
8.283,2840.204,0.00
8.300,2833.430,0.00
8.317,2829.169,0.00
8.333,2825.239,0.00
8.350,2820.303,0.00
8.367,2814.619,0.00
8.383,2808.676,0.00
8.400,2803.384,0.00
8.417,2799.009,0.00
8.433,2795.278,0.00
8.450,2792.131,0.00
8.467,2788.511,0.00
8.483,2785.058,0.00
8.500,2781.854,0.00
8.517,2779.413,0.00
8.533,2778.163,0.00
8.550,2778.234,0.00
8.567,2777.927,0.00
8.583,2777.050,0.00
8.600,2776.698,0.00
8.617,2777.100,0.00
8.633,2776.620,0.00
8.650,2774.841,0.00
8.667,2772.616,0.00
8.683,2770.504,0.00
8.700,2768.943,0.00
8.717,2768.686,0.00
8.733,2768.873,0.00
8.750,2768.095,0.00
8.767,2765.823,0.00
8.783,2763.173,0.00
8.800,2760.009,0.00
8.817,2756.026,0.00
8.833,2751.394,0.00
8.850,2746.265,0.00
8.867,2741.327,0.00
8.883,2737.281,0.00
8.900,2733.475,0.00
8.917,2728.668,0.00
8.933,2722.858,0.00
8.950,2718.022,0.00
8.967,2714.464,0.00
8.983,2711.456,0.00
9.000,2707.811,0.00
9.017,2704.235,0.00
9.033,2701.539,0.00
9.050,2698.992,0.00
9.067,2695.567,0.00
9.083,2691.590,0.00
9.100,2687.034,0.00
9.117,2682.261,0.00
9.133,2678.549,0.00
9.150,2676.291,0.00
9.167,2674.110,0.00
9.183,2670.432,0.00
9.200,2670.835,0.00
9.217,2667.251,0.00
9.233,2656.295,0.00
9.250,2652.383,0.00
9.267,2666.956,0.00
9.283,2719.473,0.00
9.300,2808.637,0.00
9.317,2905.592,0.00
9.333,2974.999,0.00
9.350,3002.307,0.00
9.367,3004.371,0.00
9.383,2993.382,0.00
9.400,2985.674,0.00
9.417,2984.664,0.00
9.433,2977.938,0.00
9.450,2970.511,0.00
9.467,2961.935,0.00
9.483,2952.164,0.00
9.500,2941.857,0.00
9.517,2932.526,0.00
9.533,2923.766,0.00
9.550,2916.274,0.00
9.567,2907.022,0.00
9.583,2894.452,0.00
9.600,2882.333,0.00
9.617,2873.436,0.00
9.633,2876.332,0.00
9.650,2891.576,0.00
9.667,2901.711,0.00
9.683,2905.903,0.00
9.700,2888.320,0.00
9.717,2858.425,0.00
9.733,2840.543,0.00
9.750,2852.480,0.00
9.767,2914.257,0.00
9.783,3011.462,0.00
9.800,3117.701,0.00
9.817,3152.470,0.00
9.833,3184.207,0.00
9.850,3242.026,0.00
9.867,3235.256,0.00
9.883,3102.880,0.00
9.900,2726.353,0.00
9.917,2177.418,0.00
9.933,1629.530,0.00
9.950,1201.021,0.00
9.967,890.183,0.00
9.983,612.008,0.00
10.000,397.474,0.00
10.017,234.754,0.00
10.033,134.102,0.00
10.050,98.765,0.00
10.067,50.611,0.00
10.083,15.340,0.00
10.100,-5.223,0.00
10.117,-11.723,0.00
10.133,-11.526,0.00
10.150,-9.487,0.00
10.167,-6.498,0.00
10.183,-2.854,0.00
10.200,-0.969,0.00
10.217,-1.175,0.00
10.233,-2.256,0.00
10.250,-2.830,0.00
10.267,-2.196,0.00
10.283,-1.205,0.00
10.300,-1.777,0.00
10.317,-1.867,0.00
10.333,-1.778,0.00
10.350,-1.427,0.00
10.367,-1.098,0.00
10.383,-0.887,0.00
10.400,-0.641,0.00
10.417,-0.425,0.00
10.433,-0.066,0.00
10.450,0.357,0.00
10.467,0.547,0.00
10.483,0.383,0.00
10.500,-0.099,0.00
10.517,-0.741,0.00
10.533,-1.169,0.00
10.550,-1.316,0.00
10.567,-1.361,0.00
10.583,-1.359,0.00
10.600,-1.403,0.00
10.617,-1.503,0.00
10.633,-1.535,0.00
10.650,-1.473,0.00
10.667,-1.386,0.00
10.683,-1.314,0.00
10.700,-1.262,0.00
10.717,-1.340,0.00
10.733,-1.368,0.00
10.750,-1.222,0.00
10.767,-1.083,0.00
10.783,-0.922,0.00
10.800,-0.779,0.00
10.817,-0.735,0.00
10.833,-0.743,0.00
10.850,-0.718,0.00
10.867,-0.673,0.00
10.883,-0.666,0.00
10.900,-0.629,0.00
10.917,-0.506,0.00
10.933,-0.335,0.00
10.950,-0.194,0.00
10.967,-0.207,0.00
10.983,-0.199,0.00
11.000,-0.152,0.00
11.017,-0.167,0.00
11.033,0.178,0.00
11.050,0.991,0.00
11.067,1.784,0.00
11.083,2.127,0.00
11.100,1.838,0.00
11.117,1.058,0.00
11.133,0.339,0.00
11.150,0.262,0.00
11.167,0.502,0.00
11.183,0.576,0.00
11.200,0.649,0.00
11.217,0.784,0.00
11.233,0.868,0.00
11.250,0.941,0.00
11.267,0.935,0.00
11.283,0.829,0.00
11.300,0.676,0.00
11.317,0.602,0.00
11.333,0.603,0.00
11.350,0.613,0.00
11.367,0.587,0.00
11.383,0.528,0.00
11.400,0.483,0.00
11.417,0.504,0.00
11.433,0.598,0.00
11.450,0.723,0.00
11.467,0.833,0.00
11.483,1.299,0.00
11.500,2.017,0.00
11.517,2.417,0.00
11.533,1.917,0.00
11.550,0.678,0.00
11.567,-0.621,0.00
11.583,-1.378,0.00
11.600,-1.401,0.00
11.617,-1.295,0.00
11.633,-1.355,0.00
11.650,-1.350,0.00
11.667,-1.223,0.00
11.683,-1.025,0.00
11.700,-0.845,0.00
11.717,-0.741,0.00
11.733,-0.646,0.00
11.750,-0.584,0.00
11.767,-0.609,0.00
11.783,-0.657,0.00
11.800,-0.507,0.00
11.817,-0.351,0.00
11.833,-0.281,0.00
11.850,-0.463,0.00
11.867,-0.835,0.00
11.883,-1.196,0.00
11.900,-1.330,0.00
11.917,-1.425,0.00
11.933,-1.427,0.00
11.950,-1.261,0.00
11.967,-1.089,0.00
11.983,-0.984,0.00
12.000,-0.957,0.00
12.017,-0.996,0.00
12.033,-1.107,0.00
12.050,-1.177,0.00
12.067,-1.366,0.00
12.083,-1.416,0.00
12.100,-0.653,0.00
12.117,3.454,0.00
12.133,7.546,0.00
12.150,-2.946,0.00
12.167,9.058,0.00
12.183,182.762,0.00
12.200,591.878,0.00
12.217,1057.818,0.00
12.233,1275.478,0.00
12.250,1086.568,0.00
12.267,623.289,0.00
12.283,186.896,0.00
12.300,-12.347,0.00
12.317,-17.588,0.00
12.333,8.739,0.00
12.350,5.650,1.42
12.367,-0.900,1.44
12.383,-1.753,1.45
12.400,-1.250,1.47
12.417,-0.983,1.49
12.433,-0.821,1.51
12.450,-0.633,1.53
12.467,-0.422,1.55
12.483,-0.217,1.56
12.500,-0.043,1.58
12.517,0.073,1.60
12.533,-0.066,1.62
12.550,-0.319,1.64
12.567,-0.593,1.66
12.583,-0.796,1.68
12.600,-0.872,1.70
12.617,-0.803,1.72
12.633,-0.859,1.74
12.650,-1.052,1.76
12.667,-1.210,1.78
12.683,-1.258,1.80
12.700,-1.232,1.83
12.717,-1.153,1.85
12.733,-1.139,1.87
12.750,-1.110,1.89
12.767,-1.099,1.91
12.783,-1.003,1.93
12.800,-0.956,1.96
12.817,-0.937,1.98
12.833,-0.805,2.00
12.850,-0.608,2.02
12.867,-0.502,2.05
12.883,-0.563,2.07
12.900,-0.722,2.09
12.917,-0.848,2.12
12.933,-0.960,2.14
12.950,-0.913,2.16
12.967,-0.862,2.19
12.983,-0.823,2.21
13.000,-0.790,2.24
13.017,-0.790,2.26
13.033,-0.840,2.29
13.050,-0.845,2.31
13.067,-0.762,2.34
13.083,-0.707,2.36
13.100,-0.672,2.39
13.117,-0.627,2.41
13.133,-0.641,2.44
13.150,-0.617,2.47
13.167,-0.591,2.49
13.183,-0.647,2.52
13.200,-0.689,2.55
13.217,-0.642,2.57
13.233,-0.606,2.60
13.250,-0.643,2.63
13.267,-0.650,2.66
13.283,-0.565,2.68
13.300,-0.406,2.71
13.317,-0.196,2.74
13.333,-0.096,2.77
13.350,-0.208,2.80
13.367,-0.389,2.83
13.383,-0.525,2.86
13.400,-0.600,2.88
13.417,-0.623,2.91
13.433,-0.507,2.94
13.450,-0.219,2.97
13.467,0.102,3.00
13.483,0.312,3.03
13.500,0.318,3.06
13.517,0.177,3.10
13.533,-0.059,3.13
13.550,-0.221,3.16
13.567,-0.200,3.19
13.583,-0.057,3.22
13.600,0.104,3.25
13.617,0.155,3.29
13.633,0.048,3.32
13.650,-0.179,3.35
13.667,-0.322,3.38
13.683,-0.237,3.42
13.700,-0.113,3.45
13.717,0.025,3.48
13.733,0.186,3.52
13.750,0.271,3.55
13.767,0.257,3.59
13.783,0.192,3.62
13.800,0.136,3.65
13.817,0.085,3.69
13.833,0.130,3.72
13.850,0.144,3.76
13.867,0.092,3.80
13.883,0.097,3.83
13.900,0.252,3.87
13.917,0.426,3.90
13.933,0.517,3.94
13.950,0.558,3.98
13.967,0.590,4.01
13.983,0.582,4.05
14.000,0.639,4.09
14.017,0.627,4.13
14.033,0.574,4.16
14.050,0.509,4.20
14.067,0.483,4.24
14.083,0.384,4.28
14.100,0.239,4.32
14.117,0.191,4.36
14.133,0.252,4.40
14.150,0.257,4.44
14.167,0.260,4.48
14.183,0.247,4.52
14.200,0.190,4.56
14.217,0.217,4.60
14.233,0.352,4.64
14.250,0.514,4.68
14.267,0.629,4.72
14.283,0.674,4.76
14.300,0.652,4.81
14.317,0.521,4.85
14.333,0.405,4.89
14.350,0.304,4.93
14.367,0.197,4.98
14.383,0.156,5.02
14.400,0.173,5.06
14.417,0.121,5.11
14.433,0.030,5.15
14.450,-0.136,5.19
14.467,-0.267,5.24
14.483,-0.305,5.28
14.500,-0.316,5.33
14.517,-0.346,5.37
14.533,-0.339,5.42
14.550,-0.239,5.46
14.567,-0.519,5.51
14.583,-0.374,5.56
14.600,0.415,5.60
14.617,1.280,5.65
14.633,1.600,5.70
14.650,1.197,5.74
14.667,0.271,5.79
14.683,-0.556,5.84
14.700,-0.741,5.89
14.717,-0.632,5.94
14.733,-0.843,5.98
14.750,-0.866,6.03
14.767,-0.780,6.08
14.783,-0.762,6.13
14.800,-0.884,6.18
14.817,-0.828,6.23
14.833,-0.711,6.28
14.850,-0.658,6.33
14.867,-0.540,6.38
14.883,-0.581,6.43
14.900,-0.566,6.49
14.917,-0.405,6.54
14.933,-0.121,6.59
14.950,0.192,6.64
14.967,0.520,6.69
14.983,0.768,6.75
15.000,0.943,6.80
15.017,1.085,6.85
15.033,1.349,6.91
15.050,1.417,6.96
15.067,1.441,7.01
15.083,1.477,7.07
15.100,1.437,7.12
15.117,1.383,7.18
15.133,1.259,7.23
15.150,1.023,7.29
15.167,0.896,7.34
15.183,0.884,7.40
15.200,0.939,7.46
15.217,0.906,7.51
15.233,0.798,7.57
15.250,0.711,7.63
15.267,0.775,7.68
15.283,0.938,7.74
15.300,1.115,7.80
15.317,1.232,7.86
15.333,1.395,7.92
15.350,1.700,7.98
15.367,2.125,8.04
15.383,2.389,8.09
15.400,2.168,8.15
15.417,1.579,8.21
15.433,0.989,8.27
15.450,0.604,8.34
15.467,0.521,8.40
15.483,0.744,8.46
15.500,1.173,8.52
15.517,1.775,8.58
15.533,2.666,8.64
15.550,3.814,8.71
15.567,5.062,8.77
15.583,6.080,8.83
15.600,6.540,8.89
15.617,6.332,8.96
15.633,6.015,9.02
15.650,6.411,9.09
15.667,7.735,9.15
15.683,9.455,9.21
15.700,10.799,9.28
15.717,11.599,9.34
15.733,12.601,9.41
15.750,14.524,9.48
15.767,16.959,9.54
15.783,18.414,9.61
15.800,17.911,9.68
15.817,16.041,9.74
15.833,14.408,9.81
15.850,14.161,9.88
15.867,14.967,9.95
15.883,15.420,10.01
