VERSION=1.3
ExportFileName=PM HZ 16_2025-05-14_13-24-16_labchip_PURE_Data_E4
SampleLabel=E4
SampleName=PM HZ 16
SampleComment=
SampleAreaConcRatio=0.012623
SampleLowerMarkerTime=12.28
SampleUpperMarkerTime=-1.00
SamplePeakTimes=12.28,15.32,15.67,17.42,17.73,17.98,18.28,18.40,18.55,18.65,18.87,19.00,19.17,19.48,19.85,20.20,20.80,21.17,21.57,22.42,23.08,23.37,24.05,25.65,26.23
SamplePeakSizes=1.298,7.568,8.814,16.999,18.845,20.382,22.322,23.104,24.133,24.833,26.390,27.375,28.634,31.115,34.130,37.149,42.641,46.191,50.229,59.362,67.031,70.421,78.901,100.336,108.657
SamplePeakQuantities=,,,8.8585,2.3476,4.5572,6.5407,50.2170,63.3248,73.1292,14.0338,3.5262,10.7998,6.0707,26.8939,188.9382,191.1575,248.7040,114.8942,182.5261,141.0516,14.6793,27.8277,139.7008,47.6696
PlateFileName=2025-05-14_13-24-16_labchip_PURE
PlateAssayName=HT Protein Express 200
PlateBarCode=N/A
WellAquisitionTime=5/14/2025 1:58:58 PM 
PlateDataFrequency=60
PlateDataStartTime=11.00
PlateDataEndTime=42.00
PlateConcUnits=ng/ul
PlateSizeUnits=kDa
PlateLadderSizes=1.40,15.90,20.40,28.90,48.40,68.40,119.20
ChipID=H296P-0563N-03
Operator=ACJS
DATA
Time,Value,Size
0.000,36.292,0.00
0.017,36.292,0.00
0.033,36.292,0.00
0.050,36.292,0.00
0.067,36.292,0.00
0.083,36.292,0.00
0.100,36.290,0.00
0.117,36.302,0.00
0.133,36.342,0.00
0.150,36.491,0.00
0.167,36.661,0.00
0.183,36.732,0.00
0.200,36.643,0.00
0.217,36.480,0.00
0.233,36.328,0.00
0.250,36.228,0.00
0.267,36.185,0.00
0.283,36.065,0.00
0.300,36.066,0.00
0.317,36.332,0.00
0.333,36.787,0.00
0.350,37.047,0.00
0.367,36.784,0.00
0.383,36.104,0.00
0.400,35.288,0.00
0.417,34.680,0.00
0.433,34.204,0.00
0.450,33.725,0.00
0.467,33.138,0.00
0.483,32.484,0.00
0.500,31.884,0.00
0.517,31.228,0.00
0.533,30.410,0.00
0.550,29.494,0.00
0.567,28.455,0.00
0.583,27.446,0.00
0.600,26.536,0.00
0.617,25.647,0.00
0.633,24.798,0.00
0.650,23.975,0.00
0.667,23.170,0.00
0.683,22.382,0.00
0.700,21.539,0.00
0.717,20.772,0.00
0.733,20.047,0.00
0.750,19.483,0.00
0.767,18.962,0.00
0.783,18.339,0.00
0.800,17.619,0.00
0.817,16.902,0.00
0.833,16.329,0.00
0.850,15.867,0.00
0.867,15.370,0.00
0.883,14.857,0.00
0.900,14.336,0.00
0.917,13.884,0.00
0.933,13.504,0.00
0.950,13.100,0.00
0.967,12.602,0.00
0.983,12.136,0.00
1.000,11.753,0.00
1.017,11.477,0.00
1.033,11.164,0.00
1.050,10.821,0.00
1.067,10.458,0.00
1.083,10.110,0.00
1.100,9.808,0.00
1.117,9.474,0.00
1.133,9.142,0.00
1.150,8.857,0.00
1.167,8.637,0.00
1.183,8.463,0.00
1.200,8.254,0.00
1.217,8.017,0.00
1.233,7.741,0.00
1.250,7.471,0.00
1.267,7.215,0.00
1.283,6.962,0.00
1.300,6.758,0.00
1.317,6.562,0.00
1.333,6.348,0.00
1.350,6.147,0.00
1.367,5.974,0.00
1.383,5.841,0.00
1.400,5.726,0.00
1.417,5.620,0.00
1.433,5.444,0.00
1.450,5.236,0.00
1.467,5.028,0.00
1.483,4.808,0.00
1.500,4.639,0.00
1.517,4.472,0.00
1.533,4.287,0.00
1.550,4.174,0.00
1.567,4.129,0.00
1.583,4.097,0.00
1.600,4.038,0.00
1.617,3.943,0.00
1.633,3.824,0.00
1.650,3.702,0.00
1.667,3.590,0.00
1.683,3.489,0.00
1.700,3.365,0.00
1.717,3.258,0.00
1.733,3.156,0.00
1.750,3.016,0.00
1.767,2.908,0.00
1.783,2.777,0.00
1.800,2.690,0.00
1.817,2.593,0.00
1.833,2.503,0.00
1.850,2.436,0.00
1.867,2.354,0.00
1.883,2.216,0.00
1.900,2.032,0.00
1.917,1.871,0.00
1.933,1.767,0.00
1.950,1.657,0.00
1.967,1.597,0.00
1.983,1.486,0.00
2.000,1.448,0.00
2.017,1.357,0.00
2.033,1.278,0.00
2.050,1.170,0.00
2.067,1.046,0.00
2.083,0.959,0.00
2.100,0.846,0.00
2.117,0.768,0.00
2.133,0.723,0.00
2.150,0.603,0.00
2.167,0.513,0.00
2.183,0.386,0.00
2.200,0.290,0.00
2.217,0.194,0.00
2.233,0.075,0.00
2.250,-0.076,0.00
2.267,-0.203,0.00
2.283,-0.274,0.00
2.300,-0.270,0.00
2.317,-0.283,0.00
2.333,-0.328,0.00
2.350,-0.429,0.00
2.367,-0.525,0.00
2.383,-0.599,0.00
2.400,-0.644,0.00
2.417,-0.672,0.00
2.433,-0.693,0.00
2.450,-0.800,0.00
2.467,-0.925,0.00
2.483,-1.077,0.00
2.500,-1.238,0.00
2.517,-1.328,0.00
2.533,-1.332,0.00
2.550,-1.328,0.00
2.567,-1.340,0.00
2.583,-1.384,0.00
2.600,-1.440,0.00
2.617,-1.506,0.00
2.633,-1.546,0.00
2.650,-1.602,0.00
2.667,-1.673,0.00
2.683,-1.720,0.00
2.700,-1.793,0.00
2.717,-1.873,0.00
2.733,-1.950,0.00
2.750,-2.015,0.00
2.767,-2.035,0.00
2.783,-2.072,0.00
2.800,-2.164,0.00
2.817,-2.283,0.00
2.833,-2.417,0.00
2.850,-2.503,0.00
2.867,-2.550,0.00
2.883,-2.599,0.00
2.900,-2.696,0.00
2.917,-2.779,0.00
2.933,-2.833,0.00
2.950,-2.869,0.00
2.967,-2.920,0.00
2.983,-2.989,0.00
3.000,-3.045,0.00
3.017,-3.072,0.00
3.033,-3.113,0.00
3.050,-3.193,0.00
3.067,-3.280,0.00
3.083,-3.331,0.00
3.100,-3.443,0.00
3.117,-3.498,0.00
3.133,-3.601,0.00
3.150,-3.677,0.00
3.167,-3.693,0.00
3.183,-3.693,0.00
3.200,-3.762,0.00
3.217,-3.856,0.00
3.233,-3.888,0.00
3.250,-3.916,0.00
3.267,-3.978,0.00
3.283,-4.002,0.00
3.300,-4.095,0.00
3.317,-4.158,0.00
3.333,-4.223,0.00
3.350,-4.247,0.00
3.367,-4.346,0.00
3.383,-4.409,0.00
3.400,-4.435,0.00
3.417,-4.441,0.00
3.433,-4.507,0.00
3.450,-4.766,0.00
3.467,-5.253,0.00
3.483,-5.852,0.00
3.500,-6.440,0.00
3.517,-6.954,0.00
3.533,-7.402,0.00
3.550,-7.802,0.00
3.567,-8.136,0.00
3.583,-8.381,0.00
3.600,-8.563,0.00
3.617,-8.737,0.00
3.633,-8.894,0.00
3.650,-9.027,0.00
3.667,-9.168,0.00
3.683,-9.281,0.00
3.700,-9.344,0.00
3.717,-9.385,0.00
3.733,-9.394,0.00
3.750,-9.447,0.00
3.767,-9.517,0.00
3.783,-9.600,0.00
3.800,-9.654,0.00
3.817,-9.697,0.00
3.833,-9.747,0.00
3.850,-9.793,0.00
3.867,-9.827,0.00
3.883,-9.804,0.00
3.900,-9.798,0.00
3.917,-9.846,0.00
3.933,-9.886,0.00
3.950,-9.908,0.00
3.967,-9.890,0.00
3.983,-9.840,0.00
4.000,-9.781,0.00
4.017,-9.736,0.00
4.033,-9.694,0.00
4.050,-9.649,0.00
4.067,-9.677,0.00
4.083,-9.738,0.00
4.100,-9.778,0.00
4.117,-9.823,0.00
4.133,-9.871,0.00
4.150,-9.924,0.00
4.167,-9.992,0.00
4.183,-10.016,0.00
4.200,-9.991,0.00
4.217,-9.948,0.00
4.233,-9.904,0.00
4.250,-9.885,0.00
4.267,-9.918,0.00
4.283,-10.038,0.00
4.300,-10.142,0.00
4.317,-10.184,0.00
4.333,-10.188,0.00
4.350,-10.127,0.00
4.367,-10.117,0.00
4.383,-10.168,0.00
4.400,-10.224,0.00
4.417,-10.281,0.00
4.433,-10.298,0.00
4.450,-10.291,0.00
4.467,-10.296,0.00
4.483,-10.313,0.00
4.500,-10.342,0.00
4.517,-10.273,0.00
4.533,-10.236,0.00
4.550,-10.248,0.00
4.567,-10.251,0.00
4.583,-10.243,0.00
4.600,-10.199,0.00
4.617,-10.135,0.00
4.633,-10.148,0.00
4.650,-10.178,0.00
4.667,-10.196,0.00
4.683,-10.142,0.00
4.700,-10.114,0.00
4.717,-10.066,0.00
4.733,-9.983,0.00
4.750,-9.987,0.00
4.767,-9.970,0.00
4.783,-9.952,0.00
4.800,-9.916,0.00
4.817,-9.850,0.00
4.833,-9.782,0.00
4.850,-9.667,0.00
4.867,-9.516,0.00
4.883,-9.280,0.00
4.900,-9.022,0.00
4.917,-8.823,0.00
4.933,-8.584,0.00
4.950,-8.355,0.00
4.967,-8.055,0.00
4.983,-7.812,0.00
5.000,-7.578,0.00
5.017,-7.341,0.00
5.033,-7.106,0.00
5.050,-6.812,0.00
5.067,-6.489,0.00
5.083,-6.219,0.00
5.100,-5.989,0.00
5.117,-5.767,0.00
5.133,-5.515,0.00
5.150,-5.250,0.00
5.167,-4.995,0.00
5.183,-4.832,0.00
5.200,-4.726,0.00
5.217,-4.595,0.00
5.233,-4.448,0.00
5.250,-4.285,0.00
5.267,-4.133,0.00
5.283,-4.038,0.00
5.300,-3.969,0.00
5.317,-3.896,0.00
5.333,-3.818,0.00
5.350,-3.752,0.00
5.367,-3.632,0.00
5.383,-3.486,0.00
5.400,-3.385,0.00
5.417,-3.351,0.00
5.433,-3.380,0.00
5.450,-3.458,0.00
5.467,-3.528,0.00
5.483,-3.541,0.00
5.500,-3.599,0.00
5.517,-3.776,0.00
5.533,-4.109,0.00
5.550,-4.579,0.00
5.567,-5.059,0.00
5.583,-5.361,0.00
5.600,-5.400,0.00
5.617,-5.285,0.00
5.633,-5.135,0.00
5.650,-5.024,0.00
5.667,-4.955,0.00
5.683,-4.857,0.00
5.700,-4.756,0.00
5.717,-4.695,0.00
5.733,-4.682,0.00
5.750,-4.718,0.00
5.767,-4.728,0.00
5.783,-4.689,0.00
5.800,-4.636,0.00
5.817,-4.585,0.00
5.833,-4.567,0.00
5.850,-4.553,0.00
5.867,-4.572,0.00
5.883,-4.613,0.00
5.900,-4.702,0.00
5.917,-4.796,0.00
5.933,-4.806,0.00
5.950,-4.764,0.00
5.967,-4.716,0.00
5.983,-4.686,0.00
6.000,-4.736,0.00
6.017,-4.819,0.00
6.033,-4.829,0.00
6.050,-4.853,0.00
6.067,-4.951,0.00
6.083,-5.056,0.00
6.100,-5.155,0.00
6.117,-5.302,0.00
6.133,-5.385,0.00
6.150,-5.366,0.00
6.167,-5.319,0.00
6.183,-5.323,0.00
6.200,-5.357,0.00
6.217,-5.424,0.00
6.233,-5.518,0.00
6.250,-5.544,0.00
6.267,-5.513,0.00
6.283,-5.546,0.00
6.300,-5.573,0.00
6.317,-5.603,0.00
6.333,-5.598,0.00
6.350,-5.684,0.00
6.367,-5.789,0.00
6.383,-5.865,0.00
6.400,-5.952,0.00
6.417,-5.959,0.00
6.433,-5.897,0.00
6.450,-5.861,0.00
6.467,-5.897,0.00
6.483,-5.975,0.00
6.500,-6.084,0.00
6.517,-6.194,0.00
6.533,-6.294,0.00
6.550,-6.380,0.00
6.567,-6.469,0.00
6.583,-6.590,0.00
6.600,-7.766,0.00
6.617,-8.822,0.00
6.633,5.544,0.00
6.650,5.437,0.00
6.667,-31.623,0.00
6.683,-9.528,0.00
6.700,197.578,0.00
6.717,638.811,0.00
6.733,1409.504,0.00
6.750,2295.877,0.00
6.767,2986.943,0.00
6.783,3317.568,0.00
6.800,3342.295,0.00
6.817,3215.368,0.00
6.833,3104.914,0.00
6.850,3094.365,0.00
6.867,3099.048,0.00
6.883,3065.175,0.00
6.900,3064.969,0.00
6.917,3068.332,0.00
6.933,3074.120,0.00
6.950,3078.994,0.00
6.967,3081.741,0.00
6.983,3083.637,0.00
7.000,3085.279,0.00
7.017,3086.834,0.00
7.033,3088.067,0.00
7.050,3088.674,0.00
7.067,3089.580,0.00
7.083,3091.748,0.00
7.100,3094.528,0.00
7.117,3095.263,0.00
7.133,3094.126,0.00
7.150,3092.781,0.00
7.167,3091.739,0.00
7.183,3091.398,0.00
7.200,3091.962,0.00
7.217,3092.078,0.00
7.233,3091.012,0.00
7.250,3089.923,0.00
7.267,3088.963,0.00
7.283,3088.150,0.00
7.300,3087.852,0.00
7.317,3087.083,0.00
7.333,3086.601,0.00
7.350,3087.084,0.00
7.367,3087.650,0.00
7.383,3086.271,0.00
7.400,3083.475,0.00
7.417,3078.774,0.00
7.433,3072.640,0.00
7.450,3067.024,0.00
7.467,3061.597,0.00
7.483,3055.604,0.00
7.500,3049.309,0.00
7.517,3043.000,0.00
7.533,3036.250,0.00
7.550,3029.131,0.00
7.567,3023.056,0.00
7.583,3015.986,0.00
7.600,3008.543,0.00
7.617,3001.419,0.00
7.633,2994.628,0.00
7.650,2989.797,0.00
7.667,2985.137,0.00
7.683,2979.704,0.00
7.700,2973.436,0.00
7.717,2966.312,0.00
7.733,2960.420,0.00
7.750,2954.238,0.00
7.767,2948.732,0.00
7.783,2941.750,0.00
7.800,2934.376,0.00
7.817,2928.451,0.00
7.833,2923.987,0.00
7.850,2919.635,0.00
7.867,2914.256,0.00
7.883,2907.308,0.00
7.900,2901.417,0.00
7.917,2896.249,0.00
7.933,2892.071,0.00
7.950,2887.400,0.00
7.967,2880.548,0.00
7.983,2873.783,0.00
8.000,2867.885,0.00
8.017,2862.711,0.00
8.033,2857.440,0.00
8.050,2852.665,0.00
8.067,2847.410,0.00
8.083,2842.045,0.00
8.100,2836.770,0.00
8.117,2831.630,0.00
8.133,2826.006,0.00
8.150,2820.349,0.00
8.167,2814.071,0.00
8.183,2808.188,0.00
8.200,2803.235,0.00
8.217,2799.493,0.00
8.233,2795.388,0.00
8.250,2790.775,0.00
8.267,2784.951,0.00
8.283,2778.884,0.00
8.300,2773.398,0.00
8.317,2768.696,0.00
8.333,2763.812,0.00
8.350,2758.493,0.00
8.367,2753.240,0.00
8.383,2748.215,0.00
8.400,2743.606,0.00
8.417,2739.879,0.00
8.433,2736.332,0.00
8.450,2732.794,0.00
8.467,2729.373,0.00
8.483,2725.840,0.00
8.500,2722.684,0.00
8.517,2720.979,0.00
8.533,2720.463,0.00
8.550,2720.400,0.00
8.567,2719.685,0.00
8.583,2718.196,0.00
8.600,2716.582,0.00
8.617,2715.353,0.00
8.633,2714.458,0.00
8.650,2713.430,0.00
8.667,2711.986,0.00
8.683,2709.967,0.00
8.700,2708.588,0.00
8.717,2707.677,0.00
8.733,2705.832,0.00
8.750,2703.006,0.00
8.767,2699.268,0.00
8.783,2694.853,0.00
8.800,2691.347,0.00
8.817,2689.134,0.00
8.833,2686.193,0.00
8.850,2683.086,0.00
8.867,2679.118,0.00
8.883,2674.072,0.00
8.900,2668.385,0.00
8.917,2663.383,0.00
8.933,2658.732,0.00
8.950,2654.112,0.00
8.967,2649.993,0.00
8.983,2645.727,0.00
9.000,2641.287,0.00
9.017,2638.183,0.00
9.033,2635.042,0.00
9.050,2632.715,0.00
9.067,2629.626,0.00
9.083,2626.500,0.00
9.100,2622.702,0.00
9.117,2619.607,0.00
9.133,2616.429,0.00
9.150,2613.148,0.00
9.167,2610.313,0.00
9.183,2606.007,0.00
9.200,2600.382,0.00
9.217,2601.562,0.00
9.233,2596.507,0.00
9.250,2585.735,0.00
9.267,2584.725,0.00
9.283,2604.478,0.00
9.300,2666.545,0.00
9.317,2761.885,0.00
9.333,2856.365,0.00
9.350,2914.971,0.00
9.367,2931.549,0.00
9.383,2926.414,0.00
9.400,2912.201,0.00
9.417,2904.636,0.00
9.433,2903.530,0.00
9.450,2896.998,0.00
9.467,2891.076,0.00
9.483,2882.287,0.00
9.500,2871.962,0.00
9.517,2861.262,0.00
9.533,2851.231,0.00
9.550,2844.324,0.00
9.567,2835.882,0.00
9.583,2824.151,0.00
9.600,2813.619,0.00
9.617,2807.788,0.00
9.633,2814.882,0.00
9.650,2831.140,0.00
9.667,2841.180,0.00
9.683,2833.406,0.00
9.700,2812.743,0.00
9.717,2784.629,0.00
9.733,2764.900,0.00
9.750,2771.901,0.00
9.767,2811.038,0.00
9.783,2888.589,0.00
9.800,2977.306,0.00
9.817,3042.409,0.00
9.833,3115.931,0.00
9.850,3165.103,0.00
9.867,3116.800,0.00
9.883,2886.696,0.00
9.900,2444.691,0.00
9.917,1904.944,0.00
9.933,1406.624,0.00
9.950,1026.862,0.00
9.967,727.985,0.00
9.983,478.470,0.00
10.000,291.581,0.00
10.017,162.883,0.00
10.033,100.491,0.00
10.050,61.882,0.00
10.067,22.872,0.00
10.083,-0.706,0.00
10.100,-11.801,0.00
10.117,-13.447,0.00
10.133,-11.889,0.00
10.150,-10.104,0.00
10.167,-8.115,0.00
10.183,-6.388,0.00
10.200,-5.149,0.00
10.217,-4.237,0.00
10.233,-3.593,0.00
10.250,-3.167,0.00
10.267,-2.925,0.00
10.283,-2.683,0.00
10.300,-2.417,0.00
10.317,-2.218,0.00
10.333,-2.075,0.00
10.350,-1.914,0.00
10.367,-1.629,0.00
10.383,-1.654,0.00
10.400,-1.233,0.00
10.417,0.739,0.00
10.433,3.606,0.00
10.450,5.449,0.00
10.467,5.063,0.00
10.483,2.709,0.00
10.500,-0.124,0.00
10.517,-1.735,0.00
10.533,-1.849,0.00
10.550,-1.950,0.00
10.567,-2.222,0.00
10.583,-2.221,0.00
10.600,-2.169,0.00
10.617,-2.283,0.00
10.633,-2.298,0.00
10.650,-2.089,0.00
10.667,-1.816,0.00
10.683,-1.496,0.00
10.700,-1.408,0.00
10.717,-1.520,0.00
10.733,-1.640,0.00
10.750,-1.628,0.00
10.767,-1.624,0.00
10.783,-1.685,0.00
10.800,-1.569,0.00
10.817,-1.258,0.00
10.833,-0.950,0.00
10.850,-0.819,0.00
10.867,-0.998,0.00
10.883,-1.033,0.00
10.900,-1.340,0.00
10.917,-1.425,0.00
10.933,-0.430,0.00
10.950,1.025,0.00
10.967,2.075,0.00
10.983,2.067,0.00
11.000,1.220,0.00
11.017,-0.636,0.00
11.033,-0.962,0.00
11.050,1.268,0.00
11.067,3.776,0.00
11.083,4.893,0.00
11.100,4.097,0.00
11.117,1.888,0.00
11.133,-0.016,0.00
11.150,-0.400,0.00
11.167,0.161,0.00
11.183,0.150,0.00
11.200,0.184,0.00
11.217,0.373,0.00
11.233,0.491,0.00
11.250,0.499,0.00
11.267,0.476,0.00
11.283,0.550,0.00
11.300,0.672,0.00
11.317,0.717,0.00
11.333,0.673,0.00
11.350,0.595,0.00
11.367,0.541,0.00
11.383,0.528,0.00
11.400,0.492,0.00
11.417,0.436,0.00
11.433,0.476,0.00
11.450,0.618,0.00
11.467,0.807,0.00
11.483,1.278,0.00
11.500,2.020,0.00
11.517,2.411,0.00
11.533,1.946,0.00
11.550,0.677,0.00
11.567,-0.745,0.00
11.583,-1.530,0.00
11.600,-1.513,0.00
11.617,-1.261,0.00
11.633,-1.311,0.00
11.650,-1.434,0.00
11.667,-1.410,0.00
11.683,-1.259,0.00
11.700,-1.109,0.00
11.717,-1.136,0.00
11.733,-1.149,0.00
11.750,-0.956,0.00
11.767,-0.755,0.00
11.783,-0.710,0.00
11.800,-0.903,0.00
11.817,-1.164,0.00
11.833,-1.336,0.00
11.850,-1.230,0.00
11.867,-1.039,0.00
11.883,-1.006,0.00
11.900,-1.078,0.00
11.917,-1.184,0.00
11.933,-1.313,0.00
11.950,-1.340,0.00
11.967,-1.306,0.00
11.983,-1.267,0.00
12.000,-1.233,0.00
12.017,-1.163,0.00
12.033,-1.176,0.00
12.050,-1.257,0.00
12.067,-1.465,0.00
12.083,-1.527,0.00
12.100,0.097,0.00
12.117,5.395,0.00
12.133,5.022,0.00
12.150,-7.699,0.00
12.167,40.514,0.00
12.183,293.318,0.00
12.200,748.508,0.00
12.217,1158.327,0.00
12.233,1240.681,0.00
12.250,931.131,0.00
12.267,447.987,0.00
12.283,88.861,0.00
12.300,-24.283,0.00
12.317,-3.896,0.00
12.333,9.888,0.00
12.350,1.684,1.42
12.367,-2.038,1.44
12.383,-1.572,1.45
12.400,-1.233,1.47
12.417,-1.627,1.49
12.433,-0.992,1.51
12.450,0.904,1.53
12.467,2.723,1.55
12.483,3.141,1.56
12.500,1.823,1.58
12.517,-0.258,1.60
12.533,-1.626,1.62
12.550,-1.333,1.64
12.567,-0.451,1.66
12.583,-0.226,1.68
12.600,-0.251,1.70
12.617,-0.640,1.72
12.633,-0.990,1.74
12.650,-1.039,1.76
12.667,-0.897,1.78
12.683,-0.827,1.80
12.700,-0.954,1.83
12.717,-1.109,1.85
12.733,-1.181,1.87
12.750,-1.186,1.89
12.767,-1.277,1.91
12.783,-1.304,1.93
12.800,-1.202,1.96
12.817,-1.074,1.98
12.833,-0.918,2.00
12.850,-0.790,2.02
12.867,-0.735,2.05
12.883,-0.768,2.07
12.900,-0.905,2.09
12.917,-1.068,2.12
12.933,-1.108,2.14
12.950,-1.048,2.16
12.967,-0.999,2.19
12.983,-0.987,2.21
13.000,-0.978,2.24
13.017,-0.937,2.26
13.033,-0.824,2.29
13.050,-0.750,2.31
13.067,-0.786,2.34
13.083,-0.802,2.36
13.100,-0.774,2.39
13.117,-0.690,2.41
13.133,-0.539,2.44
13.150,-0.420,2.47
13.167,-0.394,2.49
13.183,-0.448,2.52
13.200,-0.521,2.55
13.217,-0.601,2.57
13.233,-0.638,2.60
13.250,-0.668,2.63
13.267,-0.627,2.66
13.283,-0.552,2.68
13.300,-0.351,2.71
13.317,-0.363,2.74
13.333,-0.346,2.77
13.350,-0.168,2.80
13.367,0.063,2.83
13.383,0.151,2.86
13.400,-0.017,2.88
13.417,-0.270,2.91
13.433,-0.355,2.94
13.450,-0.232,2.97
13.467,-0.023,3.00
13.483,-0.219,3.03
13.500,-0.292,3.06
13.517,-0.254,3.10
13.533,-0.224,3.13
13.550,-0.228,3.16
13.567,-0.276,3.19
13.583,-0.177,3.22
13.600,0.048,3.25
13.617,0.257,3.29
13.633,0.359,3.32
13.650,0.325,3.35
13.667,0.294,3.38
13.683,0.321,3.42
13.700,0.308,3.45
13.717,0.306,3.48
13.733,0.275,3.52
13.750,0.190,3.55
13.767,0.127,3.59
13.783,0.095,3.62
13.800,0.125,3.65
13.817,0.052,3.69
13.833,0.046,3.72
13.850,0.065,3.76
13.867,0.142,3.80
13.883,0.206,3.83
13.900,0.190,3.87
13.917,0.133,3.90
13.933,0.130,3.94
13.950,0.171,3.98
13.967,0.195,4.01
13.983,0.122,4.05
14.000,0.110,4.09
14.017,0.149,4.13
14.033,0.256,4.16
14.050,0.317,4.20
14.067,0.298,4.24
14.083,0.329,4.28
14.100,0.353,4.32
14.117,0.345,4.36
14.133,0.361,4.40
14.150,0.289,4.44
14.167,0.278,4.48
14.183,0.323,4.52
14.200,0.346,4.56
14.217,0.303,4.60
14.233,0.217,4.64
14.250,0.272,4.68
14.267,0.398,4.72
14.283,0.557,4.76
14.300,0.683,4.81
14.317,0.638,4.85
14.333,0.511,4.89
14.350,0.471,4.93
14.367,0.549,4.98
14.383,0.591,5.02
14.400,0.558,5.06
14.417,0.493,5.11
14.433,0.402,5.15
14.450,0.329,5.19
14.467,0.346,5.24
14.483,0.278,5.28
14.500,0.152,5.33
14.517,0.244,5.37
14.533,0.418,5.42
14.550,0.495,5.46
14.567,0.440,5.51
14.583,0.350,5.56
14.600,0.422,5.60
14.617,0.736,5.65
14.633,1.297,5.70
14.650,1.710,5.74
14.667,1.891,5.79
14.683,1.899,5.84
14.700,1.802,5.89
14.717,1.820,5.94
14.733,1.775,5.98
14.750,1.157,6.03
14.767,0.837,6.08
14.783,1.452,6.13
14.800,2.653,6.18
14.817,3.460,6.23
14.833,3.077,6.28
14.850,1.717,6.33
14.867,0.432,6.38
14.883,0.268,6.43
14.900,0.900,6.49
14.917,1.432,6.54
14.933,2.206,6.59
14.950,2.966,6.64
14.967,3.841,6.69
14.983,4.564,6.75
15.000,5.013,6.80
15.017,5.232,6.85
15.033,5.271,6.91
15.050,5.099,6.96
15.067,4.866,7.01
15.083,4.643,7.07
15.100,4.457,7.12
15.117,4.350,7.18
15.133,4.625,7.23
15.150,5.170,7.29
15.167,5.930,7.34
15.183,6.963,7.40
15.200,8.372,7.46
15.217,9.805,7.51
15.233,10.696,7.57
15.250,10.367,7.63
15.267,8.827,7.68
15.283,6.834,7.74
15.300,5.349,7.80
15.317,4.703,7.86
15.333,4.582,7.92
15.350,4.885,7.98
15.367,5.510,8.04
15.383,6.281,8.09
15.400,6.912,8.15
15.417,7.374,8.21
15.433,7.614,8.27
15.450,7.928,8.34
15.467,9.344,8.40
15.483,12.481,8.46
15.500,16.280,8.52
15.517,23.698,8.58
15.533,39.270,8.64
15.550,61.306,8.71
15.567,80.381,8.77
15.583,86.141,8.83
15.600,74.913,8.89
15.617,52.785,8.96
15.633,31.151,9.02
15.650,16.516,9.09
15.667,7.280,9.15
15.683,1.178,9.21
15.700,-2.679,9.28
15.717,-4.779,9.34
15.733,-5.677,9.41
15.750,-5.770,9.48
15.767,-5.470,9.54
15.783,-5.092,9.61
15.800,-4.665,9.68
15.817,-4.292,9.74
15.833,-4.088,9.81
15.850,-4.006,9.88
15.867,-4.012,9.95
15.883,-3.966,10.01
15.900,-3.815,10.08
15.917,-3.658,10.15
15.933,-3.627,10.22
15.950,-3.693,10.29
15.967,-3.686,10.36
15.983,-3.516,10.43
16.000,-3.184,10.50
