VERSION=1.3
ExportFileName=PM HZ 4_2025-05-14_13-24-16_labchip_PURE_Data_C4
SampleLabel=C4
SampleName=PM HZ 4
SampleComment=
SampleAreaConcRatio=0.011999
SampleLowerMarkerTime=12.22
SampleUpperMarkerTime=-1.00
SamplePeakTimes=12.22,15.57,16.30,16.55,16.78,16.97,17.17,17.33,17.65,17.90,18.18,18.30,18.43,18.53,18.77,18.92,19.07,19.37,19.75,20.07,20.67,20.97,21.42,22.25,22.90,23.90,24.73,25.48,26.08,27.17,39.73
SamplePeakSizes=1.298,8.794,11.841,13.014,14.172,15.125,16.209,17.147,19.017,20.576,22.431,23.223,24.146,24.852,26.546,27.668,28.817,31.192,34.379,37.138,42.677,45.597,50.161,59.179,66.706,79.081,90.085,100.486,109.125,125.383,349.455
SamplePeakQuantities=,,11.3672,3.2457,6.7616,3.9461,3.8010,39.8085,9.7678,22.0391,29.2756,178.8153,205.4996,334.3067,52.4276,14.0960,41.6631,23.2472,90.6392,774.7618,878.9955,1035.3837,507.1934,922.8405,813.4781,128.9957,35.9444,296.4484,185.6379,32.0014,5.1457
PlateFileName=2025-05-14_13-24-16_labchip_PURE
PlateAssayName=HT Protein Express 200
PlateBarCode=N/A
WellAquisitionTime=5/14/2025 1:57:35 PM 
PlateDataFrequency=60
PlateDataStartTime=11.00
PlateDataEndTime=42.00
PlateConcUnits=ng/ul
PlateSizeUnits=kDa
PlateLadderSizes=1.40,15.90,20.40,28.90,48.40,68.40,119.20
ChipID=H296P-0563N-03
Operator=ACJS
DATA
Time,Value,Size
0.000,33.851,0.00
0.017,33.851,0.00
0.033,33.851,0.00
0.050,33.851,0.00
0.067,33.836,0.00
0.083,33.830,0.00
0.100,33.842,0.00
0.117,33.842,0.00
0.133,33.814,0.00
0.150,33.796,0.00
0.167,33.693,0.00
0.183,33.607,0.00
0.200,33.613,0.00
0.217,33.558,0.00
0.233,33.503,0.00
0.250,33.586,0.00
0.267,33.606,0.00
0.283,33.436,0.00
0.300,33.040,0.00
0.317,32.527,0.00
0.333,32.049,0.00
0.350,31.720,0.00
0.367,31.442,0.00
0.383,30.992,0.00
0.400,30.467,0.00
0.417,29.835,0.00
0.433,29.161,0.00
0.450,28.440,0.00
0.467,27.748,0.00
0.483,26.950,0.00
0.500,26.168,0.00
0.517,25.397,0.00
0.533,24.641,0.00
0.550,23.842,0.00
0.567,23.031,0.00
0.583,22.207,0.00
0.600,21.454,0.00
0.617,20.788,0.00
0.633,20.216,0.00
0.650,19.536,0.00
0.667,18.851,0.00
0.683,18.141,0.00
0.700,17.577,0.00
0.717,17.041,0.00
0.733,16.523,0.00
0.750,16.003,0.00
0.767,15.465,0.00
0.783,14.965,0.00
0.800,14.479,0.00
0.817,14.046,0.00
0.833,13.741,0.00
0.850,13.447,0.00
0.867,13.174,0.00
0.883,12.780,0.00
0.900,12.376,0.00
0.917,11.994,0.00
0.933,11.530,0.00
0.950,11.098,0.00
0.967,10.705,0.00
0.983,10.294,0.00
1.000,10.027,0.00
1.017,9.772,0.00
1.033,9.572,0.00
1.050,9.318,0.00
1.067,9.142,0.00
1.083,8.904,0.00
1.100,8.639,0.00
1.117,8.482,0.00
1.133,8.325,0.00
1.150,8.155,0.00
1.167,8.046,0.00
1.183,7.853,0.00
1.200,7.698,0.00
1.217,7.528,0.00
1.233,7.410,0.00
1.250,7.155,0.00
1.267,6.913,0.00
1.283,6.655,0.00
1.300,6.476,0.00
1.317,6.438,0.00
1.333,6.388,0.00
1.350,6.241,0.00
1.367,6.007,0.00
1.383,5.792,0.00
1.400,5.709,0.00
1.417,5.648,0.00
1.433,5.536,0.00
1.450,5.280,0.00
1.467,5.036,0.00
1.483,4.879,0.00
1.500,4.793,0.00
1.517,4.771,0.00
1.533,4.691,0.00
1.550,4.616,0.00
1.567,4.479,0.00
1.583,4.335,0.00
1.600,4.172,0.00
1.617,4.032,0.00
1.633,3.960,0.00
1.650,3.988,0.00
1.667,4.000,0.00
1.683,3.954,0.00
1.700,3.814,0.00
1.717,3.667,0.00
1.733,3.518,0.00
1.750,3.469,0.00
1.767,3.398,0.00
1.783,3.299,0.00
1.800,3.188,0.00
1.817,3.074,0.00
1.833,2.952,0.00
1.850,2.892,0.00
1.867,2.837,0.00
1.883,2.722,0.00
1.900,2.609,0.00
1.917,2.552,0.00
1.933,2.565,0.00
1.950,2.614,0.00
1.967,2.623,0.00
1.983,2.491,0.00
2.000,2.277,0.00
2.017,2.141,0.00
2.033,2.117,0.00
2.050,2.106,0.00
2.067,2.054,0.00
2.083,1.912,0.00
2.100,1.796,0.00
2.117,1.756,0.00
2.133,1.759,0.00
2.150,1.817,0.00
2.167,1.801,0.00
2.183,1.739,0.00
2.200,1.671,0.00
2.217,1.576,0.00
2.233,1.453,0.00
2.250,1.317,0.00
2.267,1.250,0.00
2.283,1.265,0.00
2.300,1.265,0.00
2.317,1.278,0.00
2.333,1.182,0.00
2.350,1.069,0.00
2.367,1.018,0.00
2.383,0.942,0.00
2.400,0.878,0.00
2.417,0.804,0.00
2.433,0.723,0.00
2.450,0.656,0.00
2.467,0.592,0.00
2.483,0.539,0.00
2.500,0.454,0.00
2.517,0.374,0.00
2.533,0.327,0.00
2.550,0.303,0.00
2.567,0.330,0.00
2.583,0.319,0.00
2.600,0.240,0.00
2.617,0.117,0.00
2.633,0.007,0.00
2.650,-0.038,0.00
2.667,-0.074,0.00
2.683,-0.166,0.00
2.700,-0.310,0.00
2.717,-0.426,0.00
2.733,-0.516,0.00
2.750,-0.534,0.00
2.767,-0.525,0.00
2.783,-0.581,0.00
2.800,-0.688,0.00
2.817,-0.776,0.00
2.833,-0.839,0.00
2.850,-0.906,0.00
2.867,-0.961,0.00
2.883,-0.995,0.00
2.900,-1.053,0.00
2.917,-1.068,0.00
2.933,-1.066,0.00
2.950,-1.122,0.00
2.967,-1.203,0.00
2.983,-1.243,0.00
3.000,-1.230,0.00
3.017,-1.216,0.00
3.033,-1.228,0.00
3.050,-1.262,0.00
3.067,-1.371,0.00
3.083,-1.480,0.00
3.100,-1.509,0.00
3.117,-1.496,0.00
3.133,-1.522,0.00
3.150,-1.595,0.00
3.167,-1.684,0.00
3.183,-1.749,0.00
3.200,-1.770,0.00
3.217,-1.794,0.00
3.233,-1.927,0.00
3.250,-2.125,0.00
3.267,-2.254,0.00
3.283,-2.256,0.00
3.300,-2.204,0.00
3.317,-2.185,0.00
3.333,-2.238,0.00
3.350,-2.341,0.00
3.367,-2.550,0.00
3.383,-2.911,0.00
3.400,-3.408,0.00
3.417,-3.974,0.00
3.433,-4.497,0.00
3.450,-4.904,0.00
3.467,-5.260,0.00
3.483,-5.614,0.00
3.500,-5.910,0.00
3.517,-6.132,0.00
3.533,-6.325,0.00
3.550,-6.515,0.00
3.567,-6.719,0.00
3.583,-6.877,0.00
3.600,-6.929,0.00
3.617,-6.916,0.00
3.633,-6.934,0.00
3.650,-7.004,0.00
3.667,-7.077,0.00
3.683,-7.127,0.00
3.700,-7.146,0.00
3.717,-7.143,0.00
3.733,-7.128,0.00
3.750,-7.096,0.00
3.767,-7.075,0.00
3.783,-7.071,0.00
3.800,-7.101,0.00
3.817,-7.172,0.00
3.833,-7.236,0.00
3.850,-7.251,0.00
3.867,-7.224,0.00
3.883,-7.182,0.00
3.900,-7.148,0.00
3.917,-7.151,0.00
3.933,-7.194,0.00
3.950,-7.203,0.00
3.967,-7.199,0.00
3.983,-7.233,0.00
4.000,-7.295,0.00
4.017,-7.347,0.00
4.033,-7.377,0.00
4.050,-7.402,0.00
4.067,-7.409,0.00
4.083,-7.393,0.00
4.100,-7.361,0.00
4.117,-7.319,0.00
4.133,-7.312,0.00
4.150,-7.341,0.00
4.167,-7.369,0.00
4.183,-7.343,0.00
4.200,-7.329,0.00
4.217,-7.369,0.00
4.233,-7.443,0.00
4.250,-7.486,0.00
4.267,-7.505,0.00
4.283,-7.536,0.00
4.300,-7.591,0.00
4.317,-7.651,0.00
4.333,-7.666,0.00
4.350,-7.640,0.00
4.367,-7.662,0.00
4.383,-7.695,0.00
4.400,-7.673,0.00
4.417,-7.584,0.00
4.433,-7.523,0.00
4.450,-7.502,0.00
4.467,-7.530,0.00
4.483,-7.553,0.00
4.500,-7.541,0.00
4.517,-7.493,0.00
4.533,-7.452,0.00
4.550,-7.406,0.00
4.567,-7.345,0.00
4.583,-7.308,0.00
4.600,-7.302,0.00
4.617,-7.308,0.00
4.633,-7.322,0.00
4.650,-7.292,0.00
4.667,-7.202,0.00
4.683,-7.062,0.00
4.700,-6.960,0.00
4.717,-6.891,0.00
4.733,-6.852,0.00
4.750,-6.809,0.00
4.767,-6.707,0.00
4.783,-6.521,0.00
4.800,-6.335,0.00
4.817,-6.172,0.00
4.833,-6.064,0.00
4.850,-5.964,0.00
4.867,-5.850,0.00
4.883,-5.644,0.00
4.900,-5.361,0.00
4.917,-5.078,0.00
4.933,-4.822,0.00
4.950,-4.602,0.00
4.967,-4.480,0.00
4.983,-4.306,0.00
5.000,-4.064,0.00
5.017,-3.719,0.00
5.033,-3.358,0.00
5.050,-3.013,0.00
5.067,-2.788,0.00
5.083,-2.653,0.00
5.100,-2.469,0.00
5.117,-2.253,0.00
5.133,-2.020,0.00
5.150,-1.820,0.00
5.167,-1.682,0.00
5.183,-1.552,0.00
5.200,-1.383,0.00
5.217,-1.200,0.00
5.233,-1.097,0.00
5.250,-1.051,0.00
5.267,-0.969,0.00
5.283,-0.863,0.00
5.300,-0.779,0.00
5.317,-0.738,0.00
5.333,-0.692,0.00
5.350,-0.645,0.00
5.367,-0.527,0.00
5.383,-0.403,0.00
5.400,-0.304,0.00
5.417,-0.278,0.00
5.433,-0.268,0.00
5.450,-0.435,0.00
5.467,-0.851,0.00
5.483,-1.297,0.00
5.500,-1.671,0.00
5.517,-1.957,0.00
5.533,-2.167,0.00
5.550,-2.354,0.00
5.567,-2.544,0.00
5.583,-2.629,0.00
5.600,-2.521,0.00
5.617,-2.334,0.00
5.633,-2.270,0.00
5.650,-2.075,0.00
5.667,-1.586,0.00
5.683,-1.084,0.00
5.700,-0.912,0.00
5.717,-1.181,0.00
5.733,-1.732,0.00
5.750,-2.121,0.00
5.767,-2.200,0.00
5.783,-2.001,0.00
5.800,-1.953,0.00
5.817,-2.039,0.00
5.833,-2.107,0.00
5.850,-2.205,0.00
5.867,-2.296,0.00
5.883,-2.390,0.00
5.900,-2.426,0.00
5.917,-2.402,0.00
5.933,-2.470,0.00
5.950,-2.545,0.00
5.967,-2.632,0.00
5.983,-2.653,0.00
6.000,-2.596,0.00
6.017,-2.499,0.00
6.033,-2.440,0.00
6.050,-2.420,0.00
6.067,-2.415,0.00
6.083,-2.394,0.00
6.100,-2.494,0.00
6.117,-2.655,0.00
6.133,-2.799,0.00
6.150,-2.826,0.00
6.167,-2.782,0.00
6.183,-2.732,0.00
6.200,-2.858,0.00
6.217,-3.037,0.00
6.233,-3.176,0.00
6.250,-3.168,0.00
6.267,-3.085,0.00
6.283,-3.091,0.00
6.300,-3.290,0.00
6.317,-3.534,0.00
6.333,-3.640,0.00
6.350,-3.584,0.00
6.367,-3.494,0.00
6.383,-3.425,0.00
6.400,-3.512,0.00
6.417,-3.717,0.00
6.433,-3.964,0.00
6.450,-4.145,0.00
6.467,-4.229,0.00
6.483,-4.217,0.00
6.500,-4.191,0.00
6.517,-4.205,0.00
6.533,-4.319,0.00
6.550,-5.561,0.00
6.567,-10.854,0.00
6.583,22.743,0.00
6.600,0.658,0.00
6.617,-52.572,0.00
6.633,-12.154,0.00
6.650,258.147,0.00
6.667,718.591,0.00
6.683,1430.467,0.00
6.700,2230.339,0.00
6.717,2875.198,0.00
6.733,3235.799,0.00
6.750,3350.388,0.00
6.767,3258.018,0.00
6.783,3139.059,0.00
6.800,3111.374,0.00
6.817,3147.600,0.00
6.833,3124.478,0.00
6.850,3128.393,0.00
6.867,3130.598,0.00
6.883,3134.205,0.00
6.900,3135.979,0.00
6.917,3134.948,0.00
6.933,3134.771,0.00
6.950,3135.092,0.00
6.967,3136.384,0.00
6.983,3138.376,0.00
7.000,3140.443,0.00
7.017,3141.638,0.00
7.033,3142.765,0.00
7.050,3143.299,0.00
7.067,3142.602,0.00
7.083,3142.269,0.00
7.100,3143.072,0.00
7.117,3143.372,0.00
7.133,3142.787,0.00
7.150,3141.412,0.00
7.167,3140.713,0.00
7.183,3140.680,0.00
7.200,3140.633,0.00
7.217,3139.307,0.00
7.233,3138.017,0.00
7.250,3138.035,0.00
7.267,3138.611,0.00
7.283,3139.152,0.00
7.300,3138.993,0.00
7.317,3138.717,0.00
7.333,3139.545,0.00
7.350,3139.526,0.00
7.367,3136.187,0.00
7.383,3130.474,0.00
7.400,3124.021,0.00
7.417,3117.302,0.00
7.433,3111.511,0.00
7.450,3105.651,0.00
7.467,3099.699,0.00
7.483,3093.505,0.00
7.500,3087.938,0.00
7.517,3082.811,0.00
7.533,3076.201,0.00
7.550,3068.764,0.00
7.567,3061.502,0.00
7.583,3054.078,0.00
7.600,3047.473,0.00
7.617,3042.113,0.00
7.633,3036.620,0.00
7.650,3030.414,0.00
7.667,3024.771,0.00
7.683,3019.462,0.00
7.700,3012.720,0.00
7.717,3005.605,0.00
7.733,2998.218,0.00
7.750,2991.698,0.00
7.767,2986.147,0.00
7.783,2981.774,0.00
7.800,2976.505,0.00
7.817,2970.857,0.00
7.833,2965.034,0.00
7.850,2958.506,0.00
7.867,2952.929,0.00
7.883,2948.413,0.00
7.900,2943.398,0.00
7.917,2938.572,0.00
7.933,2932.435,0.00
7.950,2927.040,0.00
7.967,2921.295,0.00
7.983,2915.735,0.00
8.000,2910.259,0.00
8.017,2903.878,0.00
8.033,2899.386,0.00
8.050,2895.298,0.00
8.067,2890.267,0.00
8.083,2884.240,0.00
8.100,2878.052,0.00
8.117,2872.080,0.00
8.133,2866.128,0.00
8.150,2860.331,0.00
8.167,2854.184,0.00
8.183,2848.143,0.00
8.200,2843.735,0.00
8.217,2838.419,0.00
8.233,2832.942,0.00
8.250,2827.397,0.00
8.267,2822.040,0.00
8.283,2816.336,0.00
8.300,2811.330,0.00
8.317,2806.023,0.00
8.333,2799.763,0.00
8.350,2794.145,0.00
8.367,2789.261,0.00
8.383,2783.808,0.00
8.400,2779.425,0.00
8.417,2775.519,0.00
8.433,2772.346,0.00
8.450,2769.505,0.00
8.467,2767.233,0.00
8.483,2765.792,0.00
8.500,2763.796,0.00
8.517,2761.309,0.00
8.533,2759.033,0.00
8.550,2757.541,0.00
8.567,2757.356,0.00
8.583,2757.430,0.00
8.600,2756.929,0.00
8.617,2755.601,0.00
8.633,2754.145,0.00
8.650,2753.943,0.00
8.667,2753.942,0.00
8.683,2753.300,0.00
8.700,2751.776,0.00
8.717,2749.177,0.00
8.733,2745.957,0.00
8.750,2743.103,0.00
8.767,2740.240,0.00
8.783,2737.287,0.00
8.800,2733.403,0.00
8.817,2728.208,0.00
8.833,2723.067,0.00
8.850,2719.692,0.00
8.867,2716.578,0.00
8.883,2712.594,0.00
8.900,2708.153,0.00
8.917,2704.147,0.00
8.933,2699.997,0.00
8.950,2696.062,0.00
8.967,2692.408,0.00
8.983,2688.627,0.00
9.000,2685.318,0.00
9.017,2681.612,0.00
9.033,2677.134,0.00
9.050,2672.553,0.00
9.067,2668.443,0.00
9.083,2665.021,0.00
9.100,2661.814,0.00
9.117,2659.276,0.00
9.133,2657.209,0.00
9.150,2655.005,0.00
9.167,2651.555,0.00
9.183,2649.407,0.00
9.200,2648.031,0.00
9.217,2640.791,0.00
9.233,2635.408,0.00
9.250,2645.078,0.00
9.267,2684.532,0.00
9.283,2761.730,0.00
9.300,2856.767,0.00
9.317,2935.420,0.00
9.333,2975.315,0.00
9.350,2982.034,0.00
9.367,2972.883,0.00
9.383,2962.839,0.00
9.400,2960.484,0.00
9.417,2957.832,0.00
9.433,2950.444,0.00
9.450,2941.579,0.00
9.467,2931.944,0.00
9.483,2922.813,0.00
9.500,2914.590,0.00
9.517,2905.137,0.00
9.533,2893.152,0.00
9.550,2881.783,0.00
9.567,2874.131,0.00
9.583,2875.324,0.00
9.600,2888.530,0.00
9.617,2905.791,0.00
9.633,2910.935,0.00
9.650,2899.505,0.00
9.667,2874.945,0.00
9.683,2844.574,0.00
9.700,2828.105,0.00
9.717,2839.435,0.00
9.733,2884.695,0.00
9.750,2962.945,0.00
9.767,3058.349,0.00
9.783,3116.624,0.00
9.800,3147.981,0.00
9.817,3198.619,0.00
9.833,3224.714,0.00
9.850,3146.843,0.00
9.867,2868.594,0.00
9.883,2382.408,0.00
9.900,1809.768,0.00
9.917,1294.674,0.00
9.933,906.553,0.00
9.950,608.049,0.00
9.967,388.540,0.00
9.983,240.738,0.00
10.000,142.567,0.00
10.017,91.887,0.00
10.033,50.250,0.00
10.050,14.992,0.00
10.067,-4.614,0.00
10.083,-11.579,0.00
10.100,-11.147,0.00
10.117,-9.587,0.00
10.133,-7.974,0.00
10.150,-6.241,0.00
10.167,-4.841,0.00
10.183,-3.868,0.00
10.200,-3.253,0.00
10.217,-2.770,0.00
10.233,-2.232,0.00
10.250,-1.671,0.00
10.267,-1.190,0.00
10.283,-0.900,0.00
10.300,-0.945,0.00
10.317,-1.073,0.00
10.333,-1.035,0.00
10.350,-0.835,0.00
10.367,-0.629,0.00
10.383,-0.493,0.00
10.400,-0.340,0.00
10.417,-0.002,0.00
10.433,0.333,0.00
10.450,0.381,0.00
10.467,-0.074,0.00
10.483,-0.727,0.00
10.500,-1.218,0.00
10.517,-1.381,0.00
10.533,-1.333,0.00
10.550,-1.353,0.00
10.567,-1.383,0.00
10.583,-1.335,0.00
10.600,-1.269,0.00
10.617,-1.225,0.00
10.633,-1.177,0.00
10.650,-1.135,0.00
10.667,-1.057,0.00
10.683,-0.991,0.00
10.700,-1.036,0.00
10.717,-1.063,0.00
10.733,-1.044,0.00
10.750,-0.993,0.00
10.767,-0.973,0.00
10.783,-0.963,0.00
10.800,-0.928,0.00
10.817,-0.845,0.00
10.833,-0.662,0.00
10.850,-0.446,0.00
10.867,-0.279,0.00
10.883,-0.164,0.00
10.900,-0.130,0.00
10.917,-0.171,0.00
10.933,-0.279,0.00
10.950,-0.302,0.00
10.967,-0.286,0.00
10.983,-0.231,0.00
11.000,-0.143,0.00
11.017,-0.004,0.00
11.033,0.099,0.00
11.050,0.180,0.00
11.067,0.273,0.00
11.083,0.319,0.00
11.100,0.273,0.00
11.117,0.366,0.00
11.133,0.494,0.00
11.150,0.630,0.00
11.167,0.690,0.00
11.183,0.663,0.00
11.200,0.614,0.00
11.217,0.676,0.00
11.233,0.847,0.00
11.250,0.941,0.00
11.267,0.975,0.00
11.283,1.039,0.00
11.300,1.043,0.00
11.317,1.062,0.00
11.333,1.009,0.00
11.350,0.864,0.00
11.367,0.745,0.00
11.383,0.687,0.00
11.400,0.698,0.00
11.417,0.704,0.00
11.433,0.817,0.00
11.450,0.944,0.00
11.467,1.264,0.00
11.483,2.038,0.00
11.500,2.810,0.00
11.517,2.838,0.00
11.533,1.906,0.00
11.550,0.464,0.00
11.567,-0.707,0.00
11.583,-1.152,0.00
11.600,-1.077,0.00
11.617,-1.072,0.00
11.633,-1.294,0.00
11.650,-1.366,0.00
11.667,-1.255,0.00
11.683,-1.020,0.00
11.700,-0.914,0.00
11.717,-0.902,0.00
11.733,-0.977,0.00
11.750,-1.072,0.00
11.767,-1.030,0.00
11.783,-0.938,0.00
11.800,-0.801,0.00
11.817,-0.682,0.00
11.833,-0.700,0.00
11.850,-0.770,0.00
11.867,-0.866,0.00
11.883,-0.954,0.00
11.900,-1.013,0.00
11.917,-1.255,0.00
11.933,-1.325,0.00
11.950,-1.291,0.00
11.967,-1.089,0.00
11.983,-0.872,0.00
12.000,-0.866,0.00
12.017,-1.011,0.00
12.033,-1.230,0.00
12.050,-1.289,0.00
12.067,-1.211,0.00
12.083,-1.278,0.00
12.100,-0.312,0.00
12.117,3.909,0.00
12.133,7.214,0.00
12.150,-4.525,0.00
12.167,9.353,0.00
12.183,185.014,0.00
12.200,591.166,0.00
12.217,1050.125,0.00
12.233,1262.673,0.00
12.250,1077.981,0.00
12.267,623.384,0.00
12.283,192.252,0.00
12.300,-8.403,0.00
12.317,-17.057,0.00
12.333,8.698,0.00
12.350,5.316,1.42
12.367,-1.303,1.44
12.383,-1.782,1.45
12.400,-1.474,1.47
12.417,-1.264,1.49
12.433,-1.055,1.51
12.450,-0.795,1.53
12.467,-0.603,1.55
12.483,-0.569,1.56
12.500,-0.731,1.58
12.517,-1.044,1.60
12.533,-1.274,1.62
12.550,-1.314,1.64
12.567,-1.301,1.66
12.583,-1.239,1.68
12.600,-1.117,1.70
12.617,-1.108,1.72
12.633,-1.179,1.74
12.650,-1.255,1.76
12.667,-1.321,1.78
12.683,-1.307,1.80
12.700,-1.229,1.83
12.717,-1.118,1.85
12.733,-1.125,1.87
12.750,-1.163,1.89
12.767,-1.207,1.91
12.783,-1.180,1.93
12.800,-1.125,1.96
12.817,-1.089,1.98
12.833,-1.164,2.00
12.850,-1.168,2.02
12.867,-1.191,2.05
12.883,-1.210,2.07
12.900,-1.164,2.09
12.917,-1.070,2.12
12.933,-0.933,2.14
12.950,-0.850,2.16
12.967,-0.821,2.19
12.983,-0.819,2.21
13.000,-0.854,2.24
13.017,-0.783,2.26
13.033,-0.703,2.29
13.050,-0.673,2.31
13.067,-0.539,2.34
13.083,-0.450,2.36
13.100,-0.349,2.39
13.117,-0.320,2.41
13.133,-0.228,2.44
13.150,-0.190,2.47
13.167,-0.244,2.49
13.183,-0.295,2.52
13.200,-0.468,2.55
13.217,-0.459,2.57
13.233,-0.293,2.60
13.250,-0.232,2.63
13.267,-0.158,2.66
13.283,-0.097,2.68
13.300,-0.117,2.71
13.317,-0.215,2.74
13.333,-0.262,2.77
13.350,-0.258,2.80
13.367,-0.347,2.83
13.383,-0.345,2.86
13.400,-0.316,2.88
13.417,-0.299,2.91
13.433,-0.128,2.94
13.450,0.135,2.97
13.467,0.361,3.00
13.483,0.439,3.03
13.500,0.380,3.06
13.517,0.191,3.10
13.533,0.049,3.13
13.550,-0.047,3.16
13.567,0.047,3.19
13.583,0.088,3.22
13.600,0.112,3.25
13.617,0.119,3.29
13.633,0.011,3.32
13.650,-0.159,3.35
13.667,-0.261,3.38
13.683,-0.288,3.42
13.700,-0.174,3.45
13.717,-0.079,3.48
13.733,-0.011,3.52
13.750,0.029,3.55
13.767,0.099,3.59
13.783,0.175,3.62
13.800,0.158,3.65
13.817,0.011,3.69
13.833,-0.199,3.72
13.850,-0.070,3.76
13.867,0.276,3.80
13.883,0.533,3.83
13.900,0.526,3.87
13.917,0.352,3.90
13.933,0.118,3.94
13.950,0.026,3.98
13.967,0.180,4.01
13.983,0.450,4.05
14.000,0.632,4.09
14.017,0.770,4.13
14.033,0.707,4.16
14.050,0.488,4.20
14.067,0.202,4.24
14.083,0.079,4.28
14.100,0.153,4.32
14.117,0.251,4.36
14.133,0.249,4.40
14.150,0.162,4.44
14.167,-0.059,4.48
14.183,-0.226,4.52
14.200,-0.297,4.56
14.217,-0.259,4.60
14.233,-0.279,4.64
14.250,-0.325,4.68
14.267,-0.328,4.72
14.283,-0.283,4.76
14.300,-0.175,4.81
14.317,-0.057,4.85
14.333,-0.043,4.89
14.350,-0.101,4.93
14.367,-0.152,4.98
14.383,-0.142,5.02
14.400,-0.116,5.06
14.417,-0.108,5.11
14.433,-0.135,5.15
14.450,-0.251,5.19
14.467,-0.375,5.24
14.483,-0.414,5.28
14.500,-0.384,5.33
14.517,-0.281,5.37
14.533,-0.176,5.42
14.550,-0.225,5.46
14.567,-0.288,5.51
14.583,-0.130,5.56
14.600,0.480,5.60
14.617,1.333,5.65
14.633,1.971,5.70
14.650,2.081,5.74
14.667,1.650,5.79
14.683,1.028,5.84
14.700,0.563,5.89
14.717,0.305,5.94
14.733,0.177,5.98
14.750,0.140,6.03
14.767,0.156,6.08
14.783,0.147,6.13
14.800,0.058,6.18
14.817,-0.182,6.23
14.833,-0.594,6.28
14.850,-1.024,6.33
14.867,-1.252,6.38
14.883,-1.164,6.43
14.900,-0.802,6.49
14.917,-0.200,6.54
14.933,0.519,6.59
14.950,1.229,6.64
14.967,1.875,6.69
14.983,2.408,6.75
15.000,2.647,6.80
15.017,2.541,6.85
15.033,2.236,6.91
15.050,1.914,6.96
15.067,1.577,7.01
15.083,1.282,7.07
15.100,1.094,7.12
15.117,0.910,7.18
15.133,0.801,7.23
15.150,0.860,7.29
15.167,1.007,7.34
15.183,1.176,7.40
15.200,1.373,7.46
15.217,1.776,7.51
15.233,2.399,7.57
15.250,3.010,7.63
15.267,3.335,7.68
15.283,3.163,7.74
15.300,2.638,7.80
15.317,2.107,7.86
15.333,1.988,7.92
15.350,2.283,7.98
15.367,2.752,8.04
15.383,3.234,8.09
15.400,3.591,8.15
15.417,3.817,8.21
15.433,4.118,8.27
15.450,4.659,8.34
15.467,6.040,8.40
15.483,8.288,8.46
15.500,11.223,8.52
15.517,16.434,8.58
15.533,25.332,8.64
15.550,35.501,8.71
15.567,41.610,8.77
15.583,39.584,8.83
15.600,29.891,8.89
15.617,17.426,8.96
15.633,8.013,9.02
15.650,3.157,9.09
15.667,0.675,9.15
15.683,-0.777,9.21
15.700,-1.122,9.28
15.717,-0.438,9.34
15.733,0.821,9.41
15.750,2.095,9.48
15.767,3.098,9.54
15.783,4.124,9.61
15.800,5.448,9.68
15.817,6.561,9.74
15.833,6.703,9.81
15.850,5.699,9.88
15.867,4.289,9.95
15.883,3.352,10.01
15.900,3.292,10.08
