VERSION=1.3
ExportFileName=PM PP 16_2025-05-14_13-24-16_labchip_PURE_Data_E6
SampleLabel=E6
SampleName=PM PP 16
SampleComment=
SampleAreaConcRatio=0.014745
SampleLowerMarkerTime=12.15
SampleUpperMarkerTime=-1.00
SamplePeakTimes=12.15,15.13,15.50,17.18,17.48,17.73,18.15,18.28,18.40,18.60,18.88,19.03,19.18,19.57,19.90,20.48,20.85,21.23,21.45,21.70,22.08,22.65,23.02,23.63,25.20,25.77
SamplePeakSizes=1.384,7.690,9.017,16.985,18.745,20.292,23.035,23.956,24.780,26.229,28.364,29.533,30.728,33.905,36.807,42.199,45.788,49.703,51.989,54.690,58.964,65.568,70.018,77.805,99.198,107.464
SamplePeakQuantities=,,,8.5881,2.6474,4.9422,60.8963,53.6081,45.8732,17.3687,11.7600,5.1365,6.8918,31.7521,175.2330,166.1679,358.8479,73.7627,32.9699,15.1961,148.5816,105.5694,14.1989,11.5977,62.8014,38.3300
PlateFileName=2025-05-14_13-24-16_labchip_PURE
PlateAssayName=HT Protein Express 200
PlateBarCode=N/A
WellAquisitionTime=5/14/2025 2:10:46 PM 
PlateDataFrequency=60
PlateDataStartTime=11.00
PlateDataEndTime=42.00
PlateConcUnits=ng/ul
PlateSizeUnits=kDa
PlateLadderSizes=1.40,15.90,20.40,28.90,48.40,68.40,119.20
ChipID=H296P-0563N-03
Operator=ACJS
DATA
Time,Value,Size
0.000,36.159,0.00
0.017,35.036,0.00
0.033,34.107,0.00
0.050,32.818,0.00
0.067,31.702,0.00
0.083,30.825,0.00
0.100,30.275,0.00
0.117,29.861,0.00
0.133,29.432,0.00
0.150,28.994,0.00
0.167,28.495,0.00
0.183,27.904,0.00
0.200,27.236,0.00
0.217,26.488,0.00
0.233,25.692,0.00
0.250,24.872,0.00
0.267,24.027,0.00
0.283,23.180,0.00
0.300,22.325,0.00
0.317,21.504,0.00
0.333,20.736,0.00
0.350,19.959,0.00
0.367,19.207,0.00
0.383,18.491,0.00
0.400,17.798,0.00
0.417,17.125,0.00
0.433,16.422,0.00
0.450,15.778,0.00
0.467,15.184,0.00
0.483,14.635,0.00
0.500,14.185,0.00
0.517,13.676,0.00
0.533,13.194,0.00
0.550,12.777,0.00
0.567,12.335,0.00
0.583,11.951,0.00
0.600,11.531,0.00
0.617,11.213,0.00
0.633,10.854,0.00
0.650,10.475,0.00
0.667,10.177,0.00
0.683,9.822,0.00
0.700,9.510,0.00
0.717,9.229,0.00
0.733,8.912,0.00
0.750,8.644,0.00
0.767,8.418,0.00
0.783,8.222,0.00
0.800,8.046,0.00
0.817,7.843,0.00
0.833,7.608,0.00
0.850,7.365,0.00
0.867,7.138,0.00
0.883,6.903,0.00
0.900,6.680,0.00
0.917,6.502,0.00
0.933,6.369,0.00
0.950,6.223,0.00
0.967,6.065,0.00
0.983,5.887,0.00
1.000,5.663,0.00
1.017,5.456,0.00
1.033,5.307,0.00
1.050,5.178,0.00
1.067,5.042,0.00
1.083,4.932,0.00
1.100,4.860,0.00
1.117,4.778,0.00
1.133,4.631,0.00
1.150,4.410,0.00
1.167,4.196,0.00
1.183,4.063,0.00
1.200,3.998,0.00
1.217,3.923,0.00
1.233,3.833,0.00
1.250,3.763,0.00
1.267,3.701,0.00
1.283,3.673,0.00
1.300,3.655,0.00
1.317,3.527,0.00
1.333,3.368,0.00
1.350,3.220,0.00
1.367,3.164,0.00
1.383,3.059,0.00
1.400,2.993,0.00
1.417,2.932,0.00
1.433,2.847,0.00
1.450,2.763,0.00
1.467,2.654,0.00
1.483,2.520,0.00
1.500,2.353,0.00
1.517,2.244,0.00
1.533,2.176,0.00
1.550,2.101,0.00
1.567,1.989,0.00
1.583,1.862,0.00
1.600,1.775,0.00
1.617,1.685,0.00
1.633,1.564,0.00
1.650,1.461,0.00
1.667,1.375,0.00
1.683,1.311,0.00
1.700,1.235,0.00
1.717,1.129,0.00
1.733,0.997,0.00
1.750,0.855,0.00
1.767,0.759,0.00
1.783,0.681,0.00
1.800,0.571,0.00
1.817,0.476,0.00
1.833,0.399,0.00
1.850,0.326,0.00
1.867,0.289,0.00
1.883,0.252,0.00
1.900,0.152,0.00
1.917,0.015,0.00
1.933,-0.114,0.00
1.950,-0.165,0.00
1.967,-0.197,0.00
1.983,-0.255,0.00
2.000,-0.342,0.00
2.017,-0.389,0.00
2.033,-0.425,0.00
2.050,-0.466,0.00
2.067,-0.534,0.00
2.083,-0.691,0.00
2.100,-0.864,0.00
2.117,-0.866,0.00
2.133,-0.889,0.00
2.150,-0.961,0.00
2.167,-1.028,0.00
2.183,-1.063,0.00
2.200,-1.141,0.00
2.217,-1.186,0.00
2.233,-1.185,0.00
2.250,-1.224,0.00
2.267,-1.303,0.00
2.283,-1.370,0.00
2.300,-1.475,0.00
2.317,-1.567,0.00
2.333,-1.636,0.00
2.350,-1.659,0.00
2.367,-1.702,0.00
2.383,-1.771,0.00
2.400,-1.879,0.00
2.417,-1.973,0.00
2.433,-2.011,0.00
2.450,-2.000,0.00
2.467,-1.991,0.00
2.483,-2.063,0.00
2.500,-2.200,0.00
2.517,-2.316,0.00
2.533,-2.365,0.00
2.550,-2.356,0.00
2.567,-2.346,0.00
2.583,-2.423,0.00
2.600,-2.517,0.00
2.617,-2.588,0.00
2.633,-2.627,0.00
2.650,-2.681,0.00
2.667,-2.702,0.00
2.683,-2.751,0.00
2.700,-2.823,0.00
2.717,-2.872,0.00
2.733,-2.922,0.00
2.750,-2.972,0.00
2.767,-3.037,0.00
2.783,-3.098,0.00
2.800,-3.149,0.00
2.817,-3.216,0.00
2.833,-3.275,0.00
2.850,-3.373,0.00
2.867,-3.476,0.00
2.883,-3.535,0.00
2.900,-3.623,0.00
2.917,-3.644,0.00
2.933,-3.640,0.00
2.950,-3.702,0.00
2.967,-3.759,0.00
2.983,-3.843,0.00
3.000,-3.922,0.00
3.017,-3.981,0.00
3.033,-4.004,0.00
3.050,-4.008,0.00
3.067,-4.060,0.00
3.083,-4.164,0.00
3.100,-4.284,0.00
3.117,-4.403,0.00
3.133,-4.467,0.00
3.150,-4.511,0.00
3.167,-4.527,0.00
3.183,-4.523,0.00
3.200,-4.550,0.00
3.217,-4.663,0.00
3.233,-4.970,0.00
3.250,-5.483,0.00
3.267,-6.099,0.00
3.283,-6.691,0.00
3.300,-7.203,0.00
3.317,-7.646,0.00
3.333,-8.049,0.00
3.350,-8.369,0.00
3.367,-8.675,0.00
3.383,-8.901,0.00
3.400,-9.149,0.00
3.417,-9.371,0.00
3.433,-9.580,0.00
3.450,-9.773,0.00
3.467,-9.920,0.00
3.483,-9.991,0.00
3.500,-10.023,0.00
3.517,-10.037,0.00
3.533,-10.071,0.00
3.550,-10.081,0.00
3.567,-10.214,0.00
3.583,-10.303,0.00
3.600,-10.414,0.00
3.617,-10.507,0.00
3.633,-10.560,0.00
3.650,-10.579,0.00
3.667,-10.582,0.00
3.683,-10.608,0.00
3.700,-10.594,0.00
3.717,-10.623,0.00
3.733,-10.689,0.00
3.750,-10.704,0.00
3.767,-10.689,0.00
3.783,-10.675,0.00
3.800,-10.688,0.00
3.817,-10.743,0.00
3.833,-10.804,0.00
3.850,-10.825,0.00
3.867,-10.802,0.00
3.883,-10.804,0.00
3.900,-10.839,0.00
3.917,-10.854,0.00
3.933,-10.867,0.00
3.950,-10.897,0.00
3.967,-10.927,0.00
3.983,-10.977,0.00
4.000,-11.078,0.00
4.017,-11.193,0.00
4.033,-11.310,0.00
4.050,-11.436,0.00
4.067,-11.530,0.00
4.083,-11.554,0.00
4.100,-11.567,0.00
4.117,-11.602,0.00
4.133,-11.632,0.00
4.150,-11.703,0.00
4.167,-11.822,0.00
4.183,-11.894,0.00
4.200,-11.962,0.00
4.217,-12.034,0.00
4.233,-12.058,0.00
4.250,-12.053,0.00
4.267,-12.063,0.00
4.283,-12.039,0.00
4.300,-12.024,0.00
4.317,-12.023,0.00
4.333,-12.007,0.00
4.350,-11.977,0.00
4.367,-12.008,0.00
4.383,-12.068,0.00
4.400,-12.150,0.00
4.417,-12.215,0.00
4.433,-12.184,0.00
4.450,-12.136,0.00
4.467,-12.122,0.00
4.483,-12.161,0.00
4.500,-12.240,0.00
4.517,-12.275,0.00
4.533,-12.266,0.00
4.550,-12.209,0.00
4.567,-12.148,0.00
4.583,-12.076,0.00
4.600,-11.962,0.00
4.617,-11.838,0.00
4.633,-11.703,0.00
4.650,-11.552,0.00
4.667,-11.412,0.00
4.683,-11.283,0.00
4.700,-11.164,0.00
4.717,-11.068,0.00
4.733,-10.942,0.00
4.750,-10.731,0.00
4.767,-10.462,0.00
4.783,-10.169,0.00
4.800,-9.910,0.00
4.817,-9.667,0.00
4.833,-9.404,0.00
4.850,-9.133,0.00
4.867,-8.892,0.00
4.883,-8.677,0.00
4.900,-8.546,0.00
4.917,-8.334,0.00
4.933,-8.146,0.00
4.950,-7.807,0.00
4.967,-7.502,0.00
4.983,-7.286,0.00
5.000,-7.070,0.00
5.017,-6.937,0.00
5.033,-6.826,0.00
5.050,-6.660,0.00
5.067,-6.470,0.00
5.083,-6.311,0.00
5.100,-6.249,0.00
5.117,-6.183,0.00
5.133,-6.168,0.00
5.150,-6.130,0.00
5.167,-6.019,0.00
5.183,-5.956,0.00
5.200,-5.894,0.00
5.217,-5.849,0.00
5.233,-5.812,0.00
5.250,-5.793,0.00
5.267,-5.757,0.00
5.283,-5.741,0.00
5.300,-5.760,0.00
5.317,-5.783,0.00
5.333,-5.844,0.00
5.350,-5.903,0.00
5.367,-5.876,0.00
5.383,-5.881,0.00
5.400,-6.061,0.00
5.417,-6.372,0.00
5.433,-6.689,0.00
5.450,-6.872,0.00
5.467,-6.850,0.00
5.483,-6.697,0.00
5.500,-6.602,0.00
5.517,-6.596,0.00
5.533,-6.465,0.00
5.550,-6.288,0.00
5.567,-6.149,0.00
5.583,-6.082,0.00
5.600,-6.127,0.00
5.617,-6.178,0.00
5.633,-6.170,0.00
5.650,-6.211,0.00
5.667,-6.300,0.00
5.683,-6.390,0.00
5.700,-6.350,0.00
5.717,-6.314,0.00
5.733,-6.234,0.00
5.750,-6.181,0.00
5.767,-6.188,0.00
5.783,-6.138,0.00
5.800,-6.080,0.00
5.817,-6.105,0.00
5.833,-6.145,0.00
5.850,-6.166,0.00
5.867,-6.217,0.00
5.883,-6.290,0.00
5.900,-6.291,0.00
5.917,-6.256,0.00
5.933,-6.230,0.00
5.950,-6.246,0.00
5.967,-6.353,0.00
5.983,-6.447,0.00
6.000,-6.469,0.00
6.017,-6.418,0.00
6.033,-6.387,0.00
6.050,-6.432,0.00
6.067,-6.511,0.00
6.083,-6.571,0.00
6.100,-6.570,0.00
6.117,-6.568,0.00
6.133,-6.646,0.00
6.150,-6.739,0.00
6.167,-6.832,0.00
6.183,-6.924,0.00
6.200,-6.950,0.00
6.217,-7.011,0.00
6.233,-7.091,0.00
6.250,-7.186,0.00
6.267,-7.291,0.00
6.283,-7.344,0.00
6.300,-7.399,0.00
6.317,-7.402,0.00
6.333,-7.501,0.00
6.350,-7.628,0.00
6.367,-7.715,0.00
6.383,-7.721,0.00
6.400,-7.653,0.00
6.417,-7.580,0.00
6.433,-7.659,0.00
6.450,-7.739,0.00
6.467,-8.603,0.00
6.483,-13.326,0.00
6.500,10.927,0.00
6.517,2.918,0.00
6.533,-38.794,0.00
6.550,-28.606,0.00
6.567,153.338,0.00
6.583,504.369,0.00
6.600,1085.727,0.00
6.617,1806.388,0.00
6.633,2457.442,0.00
6.650,2881.462,0.00
6.667,3067.441,0.00
6.683,3062.978,0.00
6.700,2983.811,0.00
6.717,2945.599,0.00
6.733,2964.563,0.00
6.750,2954.675,0.00
6.767,2919.345,0.00
6.783,2895.923,0.00
6.800,2878.463,0.00
6.817,2869.684,0.00
6.833,2868.205,0.00
6.850,2870.935,0.00
6.867,2874.564,0.00
6.883,2877.911,0.00
6.900,2882.082,0.00
6.917,2886.568,0.00
6.933,2890.088,0.00
6.950,2892.916,0.00
6.967,2894.959,0.00
6.983,2895.714,0.00
7.000,2895.950,0.00
7.017,2897.231,0.00
7.033,2898.019,0.00
7.050,2897.907,0.00
7.067,2898.361,0.00
7.083,2899.326,0.00
7.100,2900.760,0.00
7.117,2902.627,0.00
7.133,2902.539,0.00
7.150,2901.141,0.00
7.167,2898.245,0.00
7.183,2897.352,0.00
7.200,2897.475,0.00
7.217,2898.331,0.00
7.233,2898.868,0.00
7.250,2898.325,0.00
7.267,2896.873,0.00
7.283,2892.917,0.00
7.300,2887.020,0.00
7.317,2880.880,0.00
7.333,2874.909,0.00
7.350,2869.103,0.00
7.367,2863.086,0.00
7.383,2857.046,0.00
7.400,2850.918,0.00
7.417,2844.965,0.00
7.433,2839.395,0.00
7.450,2833.020,0.00
7.467,2826.121,0.00
7.483,2819.410,0.00
7.500,2813.138,0.00
7.517,2807.481,0.00
7.533,2802.048,0.00
7.550,2796.475,0.00
7.567,2790.305,0.00
7.583,2783.143,0.00
7.600,2775.845,0.00
7.617,2769.255,0.00
7.633,2763.240,0.00
7.650,2758.189,0.00
7.667,2753.431,0.00
7.683,2748.127,0.00
7.700,2742.297,0.00
7.717,2735.630,0.00
7.733,2729.436,0.00
7.750,2724.452,0.00
7.767,2719.469,0.00
7.783,2714.084,0.00
7.800,2707.415,0.00
7.817,2700.214,0.00
7.833,2693.976,0.00
7.850,2688.614,0.00
7.867,2683.653,0.00
7.883,2678.029,0.00
7.900,2671.739,0.00
7.917,2666.247,0.00
7.933,2660.749,0.00
7.950,2655.548,0.00
7.967,2649.896,0.00
7.983,2644.534,0.00
8.000,2639.560,0.00
8.017,2634.086,0.00
8.033,2628.624,0.00
8.050,2622.645,0.00
8.067,2616.481,0.00
8.083,2610.800,0.00
8.100,2605.757,0.00
8.117,2601.618,0.00
8.133,2597.126,0.00
8.150,2592.029,0.00
8.167,2586.539,0.00
8.183,2580.838,0.00
8.200,2575.562,0.00
8.217,2571.036,0.00
8.233,2566.957,0.00
8.250,2562.467,0.00
8.267,2557.690,0.00
8.283,2553.666,0.00
8.300,2550.001,0.00
8.317,2545.901,0.00
8.333,2541.857,0.00
8.350,2538.636,0.00
8.367,2536.243,0.00
8.383,2534.639,0.00
8.400,2534.199,0.00
8.417,2533.116,0.00
8.433,2530.856,0.00
8.450,2529.014,0.00
8.467,2528.058,0.00
8.483,2528.234,0.00
8.500,2529.033,0.00
8.517,2530.009,0.00
8.533,2529.774,0.00
8.550,2528.002,0.00
8.567,2526.133,0.00
8.583,2525.419,0.00
8.600,2524.645,0.00
8.617,2524.111,0.00
8.633,2523.190,0.00
8.650,2520.797,0.00
8.667,2517.914,0.00
8.683,2514.123,0.00
8.700,2509.579,0.00
8.717,2505.328,0.00
8.733,2501.800,0.00
8.750,2498.629,0.00
8.767,2494.520,0.00
8.783,2490.029,0.00
8.800,2484.684,0.00
8.817,2478.722,0.00
8.833,2474.107,0.00
8.850,2470.775,0.00
8.867,2467.954,0.00
8.883,2464.870,0.00
8.900,2461.163,0.00
8.917,2456.310,0.00
8.933,2450.925,0.00
8.950,2446.425,0.00
8.967,2442.616,0.00
8.983,2438.934,0.00
9.000,2435.117,0.00
9.017,2430.764,0.00
9.033,2426.579,0.00
9.050,2422.473,0.00
9.067,2417.604,0.00
9.083,2413.058,0.00
9.100,2408.889,0.00
9.117,2404.969,0.00
9.133,2400.885,0.00
9.150,2396.802,0.00
9.167,2396.101,0.00
9.183,2389.186,0.00
9.200,2379.623,0.00
9.217,2380.586,0.00
9.233,2399.351,0.00
9.250,2453.948,0.00
9.267,2535.246,0.00
9.283,2615.309,0.00
9.300,2666.716,0.00
9.317,2681.444,0.00
9.333,2679.012,0.00
9.350,2668.462,0.00
9.367,2663.035,0.00
9.383,2663.402,0.00
9.400,2657.924,0.00
9.417,2653.502,0.00
9.433,2649.665,0.00
9.450,2646.429,0.00
9.467,2643.737,0.00
9.483,2641.318,0.00
9.500,2637.892,0.00
9.517,2633.765,0.00
9.533,2630.707,0.00
9.550,2631.766,0.00
9.567,2618.003,0.00
9.583,2602.402,0.00
9.600,2613.344,0.00
9.617,2655.436,0.00
9.633,2701.943,0.00
9.650,2730.708,0.00
9.667,2726.178,0.00
9.683,2687.700,0.00
9.700,2646.687,0.00
9.717,2634.217,0.00
9.733,2652.278,0.00
9.750,2697.900,0.00
9.767,2767.962,0.00
9.783,2833.886,0.00
9.800,2874.532,0.00
9.817,2880.621,0.00
9.833,2858.628,0.00
9.850,2890.463,0.00
9.867,3000.358,0.00
9.883,2945.497,0.00
9.900,2591.921,0.00
9.917,1990.045,0.00
9.933,1317.145,0.00
9.950,782.223,0.00
9.967,491.345,0.00
9.983,366.820,0.00
10.000,227.218,0.00
10.017,97.859,0.00
10.033,75.911,0.00
10.050,35.784,0.00
10.067,7.165,0.00
10.083,-9.742,0.00
10.100,-16.645,0.00
10.117,-16.378,0.00
10.133,-14.694,0.00
10.150,-12.797,0.00
10.167,-10.620,0.00
10.183,-8.806,0.00
10.200,-7.467,0.00
10.217,-6.422,0.00
10.233,-5.437,0.00
10.250,-4.722,0.00
10.267,-4.270,0.00
10.283,-4.037,0.00
10.300,-3.786,0.00
10.317,-3.330,0.00
10.333,-2.698,0.00
10.350,-1.999,0.00
10.367,-1.401,0.00
10.383,-1.169,0.00
10.400,-1.393,0.00
10.417,-1.950,0.00
10.433,-2.321,0.00
10.450,-2.928,0.00
10.467,-3.712,0.00
10.483,-2.449,0.00
10.500,0.919,0.00
10.517,4.258,0.00
10.533,5.450,0.00
10.550,3.682,0.00
10.567,0.052,0.00
10.583,-2.814,0.00
10.600,-3.254,0.00
10.617,-2.203,0.00
10.633,-2.326,0.00
10.650,-2.327,0.00
10.667,-2.272,0.00
10.683,-2.304,0.00
10.700,-2.133,0.00
10.717,-1.868,0.00
10.733,-1.752,0.00
10.750,-1.077,0.00
10.767,-2.064,0.00
10.783,-2.603,0.00
10.800,-0.981,0.00
10.817,2.728,0.00
10.833,6.447,0.00
10.850,9.057,0.00
10.867,9.066,0.00
10.883,6.563,0.00
10.900,3.905,0.00
10.917,0.397,0.00
10.933,-1.353,0.00
10.950,0.953,0.00
10.967,5.427,0.00
10.983,8.419,0.00
11.000,7.553,0.00
11.017,4.006,0.00
11.033,0.383,0.00
11.050,-0.976,0.00
11.067,0.130,0.00
11.083,0.577,0.00
11.100,0.286,0.00
11.117,0.289,0.00
11.133,0.210,0.00
11.150,0.135,0.00
11.167,0.051,0.00
11.183,0.091,0.00
11.200,0.261,0.00
11.217,0.320,0.00
11.233,0.219,0.00
11.250,0.121,0.00
11.267,-0.034,0.00
11.283,-0.131,0.00
11.300,0.029,0.00
11.317,0.403,0.00
11.333,0.711,0.00
11.350,0.961,0.00
11.367,1.049,0.00
11.383,0.930,0.00
11.400,0.839,0.00
11.417,0.951,0.00
11.433,1.128,0.00
11.450,1.204,0.00
11.467,1.914,0.00
11.483,2.731,0.00
11.500,2.782,0.00
11.517,1.845,0.00
11.533,0.342,0.00
11.550,-0.913,0.00
11.567,-0.967,0.00
11.583,-0.098,0.00
11.600,1.007,0.00
11.617,1.546,0.00
11.633,1.628,0.00
11.650,1.253,0.00
11.667,0.574,0.00
11.683,-0.170,0.00
11.700,-0.759,0.00
11.717,-1.116,0.00
11.733,-1.187,0.00
11.750,-1.308,0.00
11.767,-1.478,0.00
11.783,-1.600,0.00
11.800,-1.684,0.00
11.817,-1.745,0.00
11.833,-1.806,0.00
11.850,-1.788,0.00
11.867,-1.689,0.00
11.883,-1.612,0.00
11.900,-1.561,0.00
11.917,-1.389,0.00
11.933,-1.548,0.00
11.950,-2.022,0.00
11.967,-0.693,0.00
11.983,2.351,0.00
12.000,5.113,0.00
12.017,5.708,0.00
12.033,3.698,0.00
12.050,0.845,0.00
12.067,0.509,0.00
12.083,3.224,0.00
12.100,3.662,0.00
12.117,4.673,0.00
12.133,76.968,0.00
12.150,327.041,0.00
12.167,734.990,0.00
12.183,1090.260,0.00
12.200,1159.863,0.00
12.217,885.192,1.40
12.233,452.759,1.42
12.250,112.554,1.43
12.267,-16.101,1.45
12.283,-10.944,1.47
12.300,6.290,1.49
12.317,3.476,1.50
12.333,-1.336,1.52
12.350,-2.173,1.54
12.367,-1.698,1.56
12.383,-1.398,1.58
12.400,-1.262,1.59
12.417,-1.198,1.61
12.433,-1.240,1.63
12.450,-1.384,1.65
12.467,-1.551,1.67
12.483,-1.656,1.69
12.500,-1.688,1.71
12.517,-1.682,1.73
12.533,-1.718,1.75
12.550,-1.760,1.77
12.567,-1.733,1.79
12.583,-1.721,1.81
12.600,-1.650,1.83
12.617,-1.269,1.85
12.633,-0.695,1.87
12.650,-0.306,1.89
12.667,-0.318,1.91
12.683,-0.743,1.93
12.700,-1.295,1.95
12.717,-1.595,1.98
12.733,-1.529,2.00
12.750,-1.440,2.02
12.767,-1.504,2.04
12.783,-1.572,2.06
12.800,-1.527,2.09
12.817,-1.452,2.11
12.833,-1.259,2.13
12.850,-1.148,2.16
12.867,-1.104,2.18
12.883,-1.221,2.20
12.900,-1.377,2.23
12.917,-1.451,2.25
12.933,-1.472,2.27
12.950,-1.438,2.30
12.967,-1.387,2.32
12.983,-1.378,2.35
13.000,-1.366,2.37
13.017,-1.308,2.40
13.033,-1.216,2.42
13.050,-1.247,2.45
13.067,-1.246,2.47
13.083,-1.279,2.50
13.100,-1.326,2.52
13.117,-1.251,2.55
13.133,-1.216,2.57
13.150,-1.208,2.60
13.167,-1.256,2.63
13.183,-1.188,2.65
13.200,-1.100,2.68
13.217,-1.090,2.71
13.233,-1.114,2.73
13.250,-1.164,2.76
13.267,-1.117,2.79
13.283,-0.957,2.82
13.300,-0.876,2.85
13.317,-0.884,2.87
13.333,-0.835,2.90
13.350,-0.727,2.93
13.367,-0.930,2.96
13.383,-1.058,2.99
13.400,0.208,3.02
13.417,2.311,3.05
13.433,3.893,3.08
13.450,3.928,3.11
13.467,2.376,3.14
13.483,0.402,3.17
13.500,-0.578,3.20
13.517,-0.329,3.23
13.533,0.189,3.26
13.550,0.164,3.29
13.567,0.532,3.32
13.583,0.929,3.35
13.600,1.224,3.39
13.617,1.354,3.42
13.633,1.380,3.45
13.650,1.511,3.48
13.667,1.575,3.51
13.683,1.421,3.55
13.700,1.575,3.58
13.717,1.955,3.61
13.733,2.321,3.65
13.750,2.405,3.68
13.767,2.120,3.72
13.783,1.537,3.75
13.800,1.073,3.78
13.817,0.853,3.82
13.833,0.703,3.85
13.850,0.584,3.89
13.867,0.465,3.92
13.883,0.282,3.96
13.900,0.127,3.99
13.917,-0.012,4.03
13.933,-0.072,4.07
13.950,-0.093,4.10
13.967,-0.076,4.14
13.983,-0.034,4.18
14.000,-0.005,4.21
14.017,0.063,4.25
14.033,0.173,4.29
14.050,0.250,4.33
14.067,0.275,4.36
14.083,0.209,4.40
14.100,0.017,4.44
14.117,-0.191,4.48
14.133,-0.269,4.52
14.150,-0.167,4.56
14.167,-0.071,4.60
14.183,-0.128,4.63
14.200,-0.356,4.67
14.217,-0.620,4.71
14.233,-0.728,4.75
14.250,-0.631,4.80
14.267,-0.525,4.84
14.283,-0.547,4.88
14.300,-0.560,4.92
14.317,-0.577,4.96
14.333,-0.512,5.00
14.350,-0.377,5.04
14.367,-0.268,5.09
14.383,-0.283,5.13
14.400,-0.293,5.17
14.417,-0.258,5.21
14.433,-0.213,5.26
14.450,-0.059,5.30
14.467,0.083,5.34
14.483,0.178,5.39
14.500,0.215,5.43
14.517,0.099,5.48
14.533,-0.133,5.52
14.550,-0.359,5.56
14.567,-0.466,5.61
14.583,-0.427,5.66
14.600,-0.337,5.70
14.617,-0.107,5.75
14.633,0.210,5.79
14.650,0.621,5.84
14.667,0.996,5.89
14.683,1.112,5.93
14.700,0.983,5.98
14.717,0.737,6.03
14.733,0.468,6.07
14.750,0.274,6.12
14.767,0.112,6.17
14.783,-0.059,6.22
14.800,-0.146,6.27
14.817,-0.129,6.32
14.833,-0.086,6.36
14.850,-0.171,6.41
14.867,-0.291,6.46
14.883,-0.304,6.51
14.900,-0.083,6.56
14.917,0.492,6.61
14.933,1.381,6.66
14.950,2.424,6.72
14.967,3.497,6.77
14.983,4.486,6.82
15.000,5.265,6.87
15.017,5.711,6.92
15.033,5.875,6.97
15.050,6.020,7.03
15.067,6.220,7.08
15.083,6.209,7.13
15.100,5.947,7.19
15.117,5.424,7.24
15.133,5.061,7.29
15.150,5.097,7.35
15.167,5.559,7.40
15.183,6.323,7.46
15.200,7.455,7.51
15.217,9.224,7.57
15.233,11.256,7.62
15.250,12.428,7.68
15.267,12.304,7.73
15.283,10.629,7.79
15.300,8.150,7.85
15.317,5.956,7.90
15.333,4.540,7.96
15.350,3.859,8.02
15.367,3.717,8.07
15.383,4.061,8.13
15.400,4.658,8.19
15.417,5.174,8.25
15.433,5.622,8.31
15.450,5.901,8.37
15.467,5.906,8.43
15.483,6.050,8.48
15.500,6.989,8.54
15.517,9.096,8.60
15.533,12.100,8.66
15.550,16.494,8.73
15.567,24.164,8.79
15.583,35.325,8.85
15.600,47.514,8.91
15.617,56.690,8.97
15.633,59.636,9.03
15.650,55.793,9.09
15.667,47.584,9.16
15.683,37.894,9.22
15.700,27.818,9.28
15.717,17.697,9.35
15.733,9.634,9.41
15.750,4.239,9.47
15.767,0.749,9.54
15.783,-1.830,9.60
15.800,-4.086,9.67
15.817,-5.855,9.73
15.833,-6.532,9.80
15.850,-6.455,9.86
15.867,-6.131,9.93
15.883,-6.037,10.00
15.900,-5.883,10.06
15.917,-5.512,10.13
