VERSION=1.3
ExportFileName=PM TG 16_2025-05-14_13-24-16_labchip_PURE_Data_E9
SampleLabel=E9
SampleName=PM TG 16
SampleComment=
SampleAreaConcRatio=0.014476
SampleLowerMarkerTime=12.15
SampleUpperMarkerTime=-1.00
SamplePeakTimes=12.15,15.18,15.55,17.23,17.83,18.10,18.22,18.35,18.47,18.67,18.82,18.97,19.27,19.65,19.98,20.57,20.93,21.33,22.18,22.77,23.10,23.75,25.33,25.90
SamplePeakSizes=1.393,7.869,9.213,17.258,20.910,22.669,23.465,24.395,25.225,26.687,27.814,28.968,31.357,34.563,37.492,42.927,46.543,50.661,59.995,66.846,70.918,79.177,100.944,109.262
SamplePeakQuantities=,,,8.3981,4.1259,6.7181,59.8946,59.9334,78.0514,15.4555,3.7232,9.9507,6.1501,28.7012,196.8730,198.4893,390.1767,115.1623,178.2478,128.2844,15.7983,19.4538,62.5897,42.1755
PlateFileName=2025-05-14_13-24-16_labchip_PURE
PlateAssayName=HT Protein Express 200
PlateBarCode=N/A
WellAquisitionTime=5/14/2025 2:28:50 PM 
PlateDataFrequency=60
PlateDataStartTime=11.00
PlateDataEndTime=42.00
PlateConcUnits=ng/ul
PlateSizeUnits=kDa
PlateLadderSizes=1.40,15.90,20.40,28.90,48.40,68.40,119.20
ChipID=H296P-0563N-03
Operator=ACJS
DATA
Time,Value,Size
0.000,28.548,0.00
0.017,28.548,0.00
0.033,28.548,0.00
0.050,28.548,0.00
0.067,28.548,0.00
0.083,28.548,0.00
0.100,28.548,0.00
0.117,28.265,0.00
0.133,28.652,0.00
0.150,29.019,0.00
0.167,29.193,0.00
0.183,29.066,0.00
0.200,28.752,0.00
0.217,28.394,0.00
0.233,28.134,0.00
0.250,27.943,0.00
0.267,27.835,0.00
0.283,27.891,0.00
0.300,27.944,0.00
0.317,28.068,0.00
0.333,28.161,0.00
0.350,28.071,0.00
0.367,27.730,0.00
0.383,27.127,0.00
0.400,26.462,0.00
0.417,25.907,0.00
0.433,25.402,0.00
0.450,24.821,0.00
0.467,24.127,0.00
0.483,23.342,0.00
0.500,22.457,0.00
0.517,21.540,0.00
0.533,20.608,0.00
0.550,19.609,0.00
0.567,18.631,0.00
0.583,17.707,0.00
0.600,16.777,0.00
0.617,15.834,0.00
0.633,14.896,0.00
0.650,13.925,0.00
0.667,12.970,0.00
0.683,12.138,0.00
0.700,11.406,0.00
0.717,10.768,0.00
0.733,10.128,0.00
0.750,9.418,0.00
0.767,8.730,0.00
0.783,8.081,0.00
0.800,7.482,0.00
0.817,6.947,0.00
0.833,6.429,0.00
0.850,5.894,0.00
0.867,5.377,0.00
0.883,4.924,0.00
0.900,4.509,0.00
0.917,4.133,0.00
0.933,3.766,0.00
0.950,3.340,0.00
0.967,2.927,0.00
0.983,2.576,0.00
1.000,2.259,0.00
1.017,1.990,0.00
1.033,1.724,0.00
1.050,1.403,0.00
1.067,1.060,0.00
1.083,0.740,0.00
1.100,0.443,0.00
1.117,0.173,0.00
1.133,-0.030,0.00
1.150,-0.170,0.00
1.167,-0.343,0.00
1.183,-0.514,0.00
1.200,-0.733,0.00
1.217,-1.017,0.00
1.233,-1.241,0.00
1.250,-1.407,0.00
1.267,-1.571,0.00
1.283,-1.737,0.00
1.300,-1.852,0.00
1.317,-1.993,0.00
1.333,-2.193,0.00
1.350,-2.347,0.00
1.367,-2.483,0.00
1.383,-2.643,0.00
1.400,-2.798,0.00
1.417,-2.988,0.00
1.433,-3.178,0.00
1.450,-3.256,0.00
1.467,-3.271,0.00
1.483,-3.350,0.00
1.500,-3.446,0.00
1.517,-3.595,0.00
1.533,-3.710,0.00
1.550,-3.823,0.00
1.567,-3.899,0.00
1.583,-3.975,0.00
1.600,-4.064,0.00
1.617,-4.134,0.00
1.633,-4.240,0.00
1.650,-4.384,0.00
1.667,-4.426,0.00
1.683,-4.502,0.00
1.700,-4.541,0.00
1.717,-4.601,0.00
1.733,-4.692,0.00
1.750,-4.810,0.00
1.767,-4.918,0.00
1.783,-4.966,0.00
1.800,-5.018,0.00
1.817,-5.143,0.00
1.833,-5.234,0.00
1.850,-5.348,0.00
1.867,-5.412,0.00
1.883,-5.436,0.00
1.900,-5.494,0.00
1.917,-5.528,0.00
1.933,-5.664,0.00
1.950,-5.794,0.00
1.967,-5.930,0.00
1.983,-6.070,0.00
2.000,-6.165,0.00
2.017,-6.167,0.00
2.033,-6.170,0.00
2.050,-6.193,0.00
2.067,-6.268,0.00
2.083,-6.325,0.00
2.100,-6.418,0.00
2.117,-6.466,0.00
2.133,-6.510,0.00
2.150,-6.592,0.00
2.167,-6.723,0.00
2.183,-6.855,0.00
2.200,-7.018,0.00
2.217,-7.078,0.00
2.233,-7.092,0.00
2.250,-7.070,0.00
2.267,-7.073,0.00
2.283,-7.142,0.00
2.300,-7.221,0.00
2.317,-7.307,0.00
2.333,-7.399,0.00
2.350,-7.476,0.00
2.367,-7.530,0.00
2.383,-7.557,0.00
2.400,-7.588,0.00
2.417,-7.644,0.00
2.433,-7.700,0.00
2.450,-7.720,0.00
2.467,-7.715,0.00
2.483,-7.727,0.00
2.500,-7.794,0.00
2.517,-7.877,0.00
2.533,-7.941,0.00
2.550,-7.969,0.00
2.567,-8.038,0.00
2.583,-8.018,0.00
2.600,-7.953,0.00
2.617,-7.894,0.00
2.633,-7.905,0.00
2.650,-7.909,0.00
2.667,-7.958,0.00
2.683,-8.045,0.00
2.700,-8.087,0.00
2.717,-8.073,0.00
2.733,-8.178,0.00
2.750,-8.235,0.00
2.767,-8.281,0.00
2.783,-8.279,0.00
2.800,-8.335,0.00
2.817,-8.335,0.00
2.833,-8.422,0.00
2.850,-8.566,0.00
2.867,-8.689,0.00
2.883,-8.740,0.00
2.900,-8.813,0.00
2.917,-8.895,0.00
2.933,-9.016,0.00
2.950,-9.181,0.00
2.967,-9.305,0.00
2.983,-9.314,0.00
3.000,-9.288,0.00
3.017,-9.313,0.00
3.033,-9.444,0.00
3.050,-9.581,0.00
3.067,-9.706,0.00
3.083,-9.744,0.00
3.100,-9.753,0.00
3.117,-9.759,0.00
3.133,-9.734,0.00
3.150,-9.720,0.00
3.167,-9.762,0.00
3.183,-9.862,0.00
3.200,-9.888,0.00
3.217,-9.860,0.00
3.233,-9.843,0.00
3.250,-9.854,0.00
3.267,-9.948,0.00
3.283,-10.091,0.00
3.300,-10.184,0.00
3.317,-10.197,0.00
3.333,-10.215,0.00
3.350,-10.241,0.00
3.367,-10.236,0.00
3.383,-10.295,0.00
3.400,-10.367,0.00
3.417,-10.377,0.00
3.433,-10.374,0.00
3.450,-10.442,0.00
3.467,-10.677,0.00
3.483,-11.134,0.00
3.500,-11.705,0.00
3.517,-12.209,0.00
3.533,-12.569,0.00
3.550,-12.912,0.00
3.567,-13.247,0.00
3.583,-13.544,0.00
3.600,-13.829,0.00
3.617,-14.050,0.00
3.633,-14.228,0.00
3.650,-14.361,0.00
3.667,-14.452,0.00
3.683,-14.506,0.00
3.700,-14.562,0.00
3.717,-14.587,0.00
3.733,-14.598,0.00
3.750,-14.619,0.00
3.767,-14.661,0.00
3.783,-14.702,0.00
3.800,-14.707,0.00
3.817,-14.669,0.00
3.833,-14.619,0.00
3.850,-14.612,0.00
3.867,-14.637,0.00
3.883,-14.625,0.00
3.900,-14.630,0.00
3.917,-14.663,0.00
3.933,-14.692,0.00
3.950,-14.675,0.00
3.967,-14.615,0.00
3.983,-14.580,0.00
4.000,-14.594,0.00
4.017,-14.650,0.00
4.033,-14.695,0.00
4.050,-14.694,0.00
4.067,-14.658,0.00
4.083,-14.610,0.00
4.100,-14.547,0.00
4.117,-14.475,0.00
4.133,-14.427,0.00
4.150,-14.433,0.00
4.167,-14.465,0.00
4.183,-14.507,0.00
4.200,-14.527,0.00
4.217,-14.520,0.00
4.233,-14.502,0.00
4.250,-14.493,0.00
4.267,-14.487,0.00
4.283,-14.470,0.00
4.300,-14.429,0.00
4.317,-14.397,0.00
4.333,-14.396,0.00
4.350,-14.451,0.00
4.367,-14.489,0.00
4.383,-14.520,0.00
4.400,-14.530,0.00
4.417,-14.507,0.00
4.433,-14.488,0.00
4.450,-14.493,0.00
4.467,-14.503,0.00
4.483,-14.516,0.00
4.500,-14.531,0.00
4.517,-14.546,0.00
4.533,-14.529,0.00
4.550,-14.534,0.00
4.567,-14.517,0.00
4.583,-14.480,0.00
4.600,-14.452,0.00
4.617,-14.444,0.00
4.633,-14.415,0.00
4.650,-14.338,0.00
4.667,-14.254,0.00
4.683,-14.220,0.00
4.700,-14.206,0.00
4.717,-14.207,0.00
4.733,-14.207,0.00
4.750,-14.203,0.00
4.767,-14.153,0.00
4.783,-14.073,0.00
4.800,-13.950,0.00
4.817,-13.809,0.00
4.833,-13.713,0.00
4.850,-13.621,0.00
4.867,-13.516,0.00
4.883,-13.383,0.00
4.900,-13.186,0.00
4.917,-12.936,0.00
4.933,-12.669,0.00
4.950,-12.400,0.00
4.967,-12.148,0.00
4.983,-11.915,0.00
5.000,-11.674,0.00
5.017,-11.391,0.00
5.033,-11.124,0.00
5.050,-10.827,0.00
5.067,-10.477,0.00
5.083,-10.180,0.00
5.100,-9.929,0.00
5.117,-9.700,0.00
5.133,-9.490,0.00
5.150,-9.277,0.00
5.167,-9.013,0.00
5.183,-8.766,0.00
5.200,-8.545,0.00
5.217,-8.397,0.00
5.233,-8.296,0.00
5.250,-8.188,0.00
5.267,-7.995,0.00
5.283,-7.803,0.00
5.300,-7.665,0.00
5.317,-7.592,0.00
5.333,-7.565,0.00
5.350,-7.552,0.00
5.367,-7.471,0.00
5.383,-7.384,0.00
5.400,-7.365,0.00
5.417,-7.347,0.00
5.433,-7.317,0.00
5.450,-7.322,0.00
5.467,-7.371,0.00
5.483,-7.393,0.00
5.500,-7.382,0.00
5.517,-7.394,0.00
5.533,-7.501,0.00
5.550,-7.762,0.00
5.567,-8.172,0.00
5.583,-8.471,0.00
5.600,-8.446,0.00
5.617,-8.208,0.00
5.633,-7.955,0.00
5.650,-7.770,0.00
5.667,-7.675,0.00
5.683,-7.613,0.00
5.700,-7.568,0.00
5.717,-7.499,0.00
5.733,-7.381,0.00
5.750,-7.279,0.00
5.767,-7.186,0.00
5.783,-7.111,0.00
5.800,-6.938,0.00
5.817,-6.746,0.00
5.833,-6.612,0.00
5.850,-6.511,0.00
5.867,-6.515,0.00
5.883,-6.418,0.00
5.900,-6.127,0.00
5.917,-5.844,0.00
5.933,-5.517,0.00
5.950,-5.306,0.00
5.967,-5.272,0.00
5.983,-5.494,0.00
6.000,-5.804,0.00
6.017,-6.071,0.00
6.033,-6.259,0.00
6.050,-6.280,0.00
6.067,-6.326,0.00
6.083,-6.473,0.00
6.100,-6.615,0.00
6.117,-6.866,0.00
6.133,-7.041,0.00
6.150,-7.218,0.00
6.167,-7.270,0.00
6.183,-7.307,0.00
6.200,-7.383,0.00
6.217,-7.482,0.00
6.233,-7.551,0.00
6.250,-7.571,0.00
6.267,-7.680,0.00
6.283,-7.718,0.00
6.300,-7.540,0.00
6.317,-7.404,0.00
6.333,-7.326,0.00
6.350,-7.445,0.00
6.367,-7.694,0.00
6.383,-7.898,0.00
6.400,-7.913,0.00
6.417,-7.918,0.00
6.433,-7.996,0.00
6.450,-8.050,0.00
6.467,-8.081,0.00
6.483,-8.136,0.00
6.500,-8.216,0.00
6.517,-8.424,0.00
6.533,-8.311,0.00
6.550,-7.962,0.00
6.567,-7.677,0.00
6.583,-7.766,0.00
6.600,-8.178,0.00
6.617,-8.738,0.00
6.633,-10.257,0.00
6.650,-10.428,0.00
6.667,1.866,0.00
6.683,4.526,0.00
6.700,-30.771,0.00
6.717,-13.993,0.00
6.733,170.279,0.00
6.750,595.567,0.00
6.767,1359.776,0.00
6.783,2240.575,0.00
6.800,2913.087,0.00
6.817,3211.075,0.00
6.833,3208.577,0.00
6.850,3084.121,0.00
6.867,2995.843,0.00
6.883,3007.029,0.00
6.900,3011.792,0.00
6.917,2958.838,0.00
6.933,2939.549,0.00
6.950,2928.613,0.00
6.967,2924.859,0.00
6.983,2924.741,0.00
7.000,2926.202,0.00
7.017,2928.092,0.00
7.033,2930.957,0.00
7.050,2933.655,0.00
7.067,2934.794,0.00
7.083,2935.490,0.00
7.100,2936.101,0.00
7.117,2936.717,0.00
7.133,2938.061,0.00
7.150,2940.376,0.00
7.167,2942.321,0.00
7.183,2944.004,0.00
7.200,2945.995,0.00
7.217,2947.063,0.00
7.233,2947.526,0.00
7.250,2947.026,0.00
7.267,2946.268,0.00
7.283,2946.503,0.00
7.300,2946.687,0.00
7.317,2946.631,0.00
7.333,2945.692,0.00
7.350,2944.216,0.00
7.367,2942.140,0.00
7.383,2939.737,0.00
7.400,2937.826,0.00
7.417,2935.255,0.00
7.433,2931.793,0.00
7.450,2926.973,0.00
7.467,2920.882,0.00
7.483,2915.150,0.00
7.500,2909.383,0.00
7.517,2903.551,0.00
7.533,2897.563,0.00
7.550,2890.997,0.00
7.567,2884.540,0.00
7.583,2878.588,0.00
7.600,2872.166,0.00
7.617,2865.412,0.00
7.633,2858.570,0.00
7.650,2851.800,0.00
7.667,2845.109,0.00
7.683,2838.922,0.00
7.700,2832.876,0.00
7.717,2826.316,0.00
7.733,2819.454,0.00
7.750,2812.640,0.00
7.767,2805.953,0.00
7.783,2800.020,0.00
7.800,2794.328,0.00
7.817,2788.999,0.00
7.833,2783.146,0.00
7.850,2777.425,0.00
7.867,2772.400,0.00
7.883,2767.889,0.00
7.900,2762.498,0.00
7.917,2755.933,0.00
7.933,2748.987,0.00
7.950,2742.576,0.00
7.967,2737.079,0.00
7.983,2731.522,0.00
8.000,2725.598,0.00
8.017,2720.130,0.00
8.033,2715.435,0.00
8.050,2710.455,0.00
8.067,2703.787,0.00
8.083,2696.526,0.00
8.100,2689.866,0.00
8.117,2684.505,0.00
8.133,2679.685,0.00
8.150,2674.331,0.00
8.167,2669.093,0.00
8.183,2664.179,0.00
8.200,2659.232,0.00
8.217,2653.826,0.00
8.233,2648.341,0.00
8.250,2642.981,0.00
8.267,2638.112,0.00
8.283,2633.890,0.00
8.300,2629.576,0.00
8.317,2625.490,0.00
8.333,2621.765,0.00
8.350,2617.890,0.00
8.367,2612.922,0.00
8.383,2607.860,0.00
8.400,2604.008,0.00
8.417,2599.548,0.00
8.433,2595.628,0.00
8.450,2592.623,0.00
8.467,2590.477,0.00
8.483,2589.138,0.00
8.500,2588.556,0.00
8.517,2587.011,0.00
8.533,2584.656,0.00
8.550,2583.067,0.00
8.567,2583.142,0.00
8.583,2583.154,0.00
8.600,2582.916,0.00
8.617,2582.407,0.00
8.633,2581.321,0.00
8.650,2579.474,0.00
8.667,2578.590,0.00
8.683,2578.492,0.00
8.700,2578.494,0.00
8.717,2578.506,0.00
8.733,2577.519,0.00
8.750,2575.626,0.00
8.767,2573.033,0.00
8.783,2570.306,0.00
8.800,2567.408,0.00
8.817,2563.396,0.00
8.833,2559.426,0.00
8.850,2557.340,0.00
8.867,2555.662,0.00
8.883,2555.010,0.00
8.900,2552.782,0.00
8.917,2550.255,0.00
8.933,2547.607,0.00
8.950,2545.933,0.00
8.967,2544.661,0.00
8.983,2543.057,0.00
9.000,2541.345,0.00
9.017,2540.637,0.00
9.033,2540.143,0.00
9.050,2538.579,0.00
9.067,2535.833,0.00
9.083,2532.743,0.00
9.100,2530.774,0.00
9.117,2529.640,0.00
9.133,2527.787,0.00
9.150,2525.521,0.00
9.167,2521.984,0.00
9.183,2517.750,0.00
9.200,2514.029,0.00
9.217,2508.556,0.00
9.233,2502.008,0.00
9.250,2505.514,0.00
9.267,2495.475,0.00
9.283,2466.428,0.00
9.300,2471.771,0.00
9.317,2540.194,0.00
9.333,2650.845,0.00
9.350,2752.783,0.00
9.367,2801.502,0.00
9.383,2788.476,0.00
9.400,2753.445,0.00
9.417,2742.172,0.00
9.433,2737.633,0.00
9.450,2725.157,0.00
9.467,2715.267,0.00
9.483,2704.950,0.00
9.500,2693.094,0.00
9.517,2679.188,0.00
9.533,2666.090,0.00
9.550,2654.904,0.00
9.567,2645.998,0.00
9.583,2639.831,0.00
9.600,2630.686,0.00
9.617,2619.553,0.00
9.633,2612.838,0.00
9.650,2615.198,0.00
9.667,2635.121,0.00
9.683,2664.951,0.00
9.700,2687.601,0.00
9.717,2693.399,0.00
9.733,2675.270,0.00
9.750,2651.405,0.00
9.767,2646.624,0.00
9.783,2678.164,0.00
9.800,2753.674,0.00
9.817,2851.777,0.00
9.833,2935.430,0.00
9.850,2967.203,0.00
9.867,3005.052,0.00
9.883,3041.664,0.00
9.900,2999.655,0.00
9.917,2804.073,0.00
9.933,2402.164,0.00
9.950,1881.909,0.00
9.967,1373.081,0.00
9.983,962.391,0.00
10.000,647.889,0.00
10.017,401.285,0.00
10.033,242.242,0.00
10.050,144.135,0.00
10.067,90.810,0.00
10.083,56.331,0.00
10.100,16.055,0.00
10.117,-6.161,0.00
10.133,-16.324,0.00
10.150,-16.797,0.00
10.167,-14.399,0.00
10.183,-12.617,0.00
10.200,-10.998,0.00
10.217,-8.294,0.00
10.233,-5.205,0.00
10.250,-2.770,0.00
10.267,-1.725,0.00
10.283,-2.020,0.00
10.300,-2.908,0.00
10.317,-3.290,0.00
10.333,-2.655,0.00
10.350,-2.062,0.00
10.367,-1.935,0.00
10.383,-1.360,0.00
10.400,-0.627,0.00
10.417,-0.235,0.00
10.433,-0.395,0.00
10.450,-0.478,0.00
10.467,-0.469,0.00
10.483,-0.522,0.00
10.500,-0.775,0.00
10.517,-1.357,0.00
10.533,-2.123,0.00
10.550,-2.525,0.00
10.567,-2.275,0.00
10.583,-2.082,0.00
10.600,-2.116,0.00
10.617,-2.096,0.00
10.633,-2.142,0.00
10.650,-2.087,0.00
10.667,-1.931,0.00
10.683,-1.770,0.00
10.700,-1.666,0.00
10.717,-1.589,0.00
10.733,-1.526,0.00
10.750,-1.451,0.00
10.767,-1.064,0.00
10.783,-0.237,0.00
10.800,0.635,0.00
10.817,1.118,0.00
10.833,0.968,0.00
10.850,0.397,0.00
10.867,-0.134,0.00
10.883,-0.360,0.00
10.900,-0.411,0.00
10.917,-0.464,0.00
10.933,-0.470,0.00
10.950,-0.457,0.00
10.967,-0.450,0.00
10.983,-0.439,0.00
11.000,-0.420,0.00
11.017,-0.364,0.00
11.033,-0.294,0.00
11.050,-0.242,0.00
11.067,-0.169,0.00
11.083,-0.016,0.00
11.100,0.144,0.00
11.117,0.229,0.00
11.133,0.273,0.00
11.150,0.347,0.00
11.167,0.469,0.00
11.183,0.586,0.00
11.200,0.674,0.00
11.217,0.732,0.00
11.233,0.774,0.00
11.250,0.794,0.00
11.267,0.740,0.00
11.283,0.721,0.00
11.300,0.690,0.00
11.317,0.720,0.00
11.333,0.670,0.00
11.350,0.620,0.00
11.367,0.697,0.00
11.383,0.969,0.00
11.400,1.375,0.00
11.417,1.662,0.00
11.433,1.825,0.00
11.450,1.890,0.00
11.467,1.881,0.00
11.483,2.312,0.00
11.500,2.924,0.00
11.517,3.118,0.00
11.533,2.330,0.00
11.550,0.807,0.00
11.567,-0.746,0.00
11.583,-1.744,0.00
11.600,-1.824,0.00
11.617,-1.477,0.00
11.633,-1.119,0.00
11.650,-0.650,0.00
11.667,-0.249,0.00
11.683,-0.068,0.00
11.700,-0.245,0.00
11.717,-0.553,0.00
11.733,-0.779,0.00
11.750,-1.030,0.00
11.767,-1.168,0.00
11.783,-1.215,0.00
11.800,-1.157,0.00
11.817,-1.072,0.00
11.833,-1.041,0.00
11.850,-1.130,0.00
11.867,-1.253,0.00
11.883,-1.289,0.00
11.900,-1.250,0.00
11.917,-1.272,0.00
11.933,-1.235,0.00
11.950,-1.188,0.00
11.967,-1.076,0.00
11.983,-1.066,0.00
12.000,-1.110,0.00
12.017,-1.211,0.00
12.033,-1.418,0.00
12.050,-1.422,0.00
12.067,-1.044,0.00
12.083,1.670,0.00
12.100,5.614,0.00
12.117,2.133,0.00
12.133,2.167,0.00
12.150,101.160,0.00
12.167,409.570,0.00
12.183,851.171,0.00
12.200,1163.174,0.00
12.217,1126.835,1.41
12.233,765.599,1.43
12.250,318.969,1.45
12.267,36.798,1.46
12.283,-26.245,1.48
12.300,-0.223,1.50
12.317,7.937,1.52
12.333,0.847,1.54
12.350,-1.847,1.55
12.367,-1.402,1.57
12.383,-0.909,1.59
12.400,-0.697,1.61
12.417,-0.578,1.63
12.433,-0.539,1.65
12.450,-0.749,1.67
12.467,-0.945,1.69
12.483,-1.051,1.71
12.500,-1.161,1.73
12.517,-1.235,1.75
12.533,-1.165,1.77
12.550,-1.146,1.79
12.567,-1.199,1.81
12.583,-1.232,1.83
12.600,-1.226,1.85
12.617,-1.284,1.88
12.633,-1.239,1.90
12.650,-1.188,1.92
12.667,-1.326,1.94
12.683,-1.392,1.96
12.700,-1.206,1.98
12.717,-0.749,2.01
12.733,-0.243,2.03
12.750,-0.003,2.05
12.767,-0.137,2.08
12.783,-0.477,2.10
12.800,-0.694,2.12
12.817,-0.664,2.14
12.833,-0.585,2.17
12.850,-0.555,2.19
12.867,-0.617,2.22
12.883,-0.666,2.24
12.900,-0.735,2.27
12.917,-0.790,2.29
12.933,-0.770,2.31
12.950,-0.786,2.34
12.967,-0.748,2.37
12.983,-0.651,2.39
13.000,-0.596,2.42
13.017,-0.574,2.44
13.033,-0.611,2.47
13.050,-0.585,2.49
13.067,-0.502,2.52
13.083,-0.292,2.55
13.100,0.119,2.57
13.117,0.394,2.60
13.133,0.516,2.63
13.150,0.411,2.66
13.167,0.074,2.68
13.183,-0.166,2.71
13.200,-0.252,2.74
13.217,-0.255,2.77
13.233,-0.301,2.80
13.250,-0.423,2.82
13.267,-0.511,2.85
13.283,-0.565,2.88
13.300,-0.541,2.91
13.317,-0.520,2.94
13.333,-0.507,2.97
13.350,-0.469,3.00
13.367,-0.423,3.03
13.383,-0.377,3.06
13.400,-0.307,3.09
13.417,-0.274,3.12
13.433,-0.260,3.15
13.450,-0.320,3.18
13.467,-0.469,3.22
13.483,-0.578,3.25
13.500,-0.599,3.28
13.517,-0.522,3.31
13.533,-0.387,3.34
13.550,-0.314,3.38
13.567,-0.316,3.41
13.583,-0.354,3.44
13.600,-0.365,3.48
13.617,-0.328,3.51
13.633,-0.239,3.54
13.650,-0.199,3.58
13.667,-0.181,3.61
13.683,-0.164,3.64
13.700,-0.210,3.68
13.717,-0.259,3.71
13.733,-0.263,3.75
13.750,-0.241,3.78
13.767,-0.234,3.82
13.783,-0.242,3.86
13.800,-0.286,3.89
13.817,-0.300,3.93
13.833,-0.196,3.96
13.850,-0.073,4.00
13.867,-0.013,4.04
13.883,-0.002,4.07
13.900,0.017,4.11
13.917,0.040,4.15
13.933,0.034,4.19
13.950,-0.003,4.23
13.967,-0.029,4.26
13.983,-0.018,4.30
14.000,0.063,4.34
14.017,0.162,4.38
14.033,0.178,4.42
14.050,0.172,4.46
14.067,0.222,4.50
14.083,0.294,4.54
14.100,0.288,4.58
14.117,0.257,4.62
14.133,0.198,4.66
14.150,0.088,4.70
14.167,0.060,4.74
14.183,0.104,4.78
14.200,0.154,4.82
14.217,0.145,4.87
14.233,0.123,4.91
14.250,0.154,4.95
14.267,0.195,4.99
14.283,0.243,5.04
14.300,0.251,5.08
14.317,0.211,5.12
14.333,0.204,5.17
14.350,0.230,5.21
14.367,0.261,5.26
14.383,0.213,5.30
14.400,0.203,5.35
14.417,0.232,5.39
14.433,0.268,5.44
14.450,0.312,5.48
14.467,0.250,5.53
14.483,0.249,5.57
14.500,0.528,5.62
14.517,0.827,5.67
14.533,0.980,5.71
14.550,0.936,5.76
14.567,0.903,5.81
14.583,0.965,5.85
14.600,1.211,5.90
14.617,1.552,5.95
14.633,1.719,6.00
14.650,1.751,6.05
14.667,1.770,6.10
14.683,1.723,6.15
14.700,1.634,6.20
14.717,1.509,6.25
14.733,1.443,6.30
14.750,1.395,6.35
14.767,1.280,6.40
14.783,1.202,6.45
14.800,1.160,6.50
14.817,1.124,6.55
14.833,1.122,6.60
14.850,1.142,6.65
14.867,1.330,6.71
14.883,1.617,6.76
14.900,2.193,6.81
14.917,3.128,6.86
14.933,4.025,6.92
14.950,4.786,6.97
14.967,5.293,7.02
14.983,5.614,7.08
15.000,5.751,7.13
15.017,5.910,7.19
15.033,6.067,7.24
15.050,5.951,7.30
15.067,5.638,7.35
15.083,5.337,7.41
15.100,5.130,7.46
15.117,5.276,7.52
15.133,5.767,7.58
15.150,6.492,7.63
15.167,7.673,7.69
15.183,9.498,7.75
15.200,11.417,7.81
15.217,12.534,7.87
15.233,12.181,7.92
15.250,10.421,7.98
15.267,8.022,8.04
15.283,5.919,8.10
15.300,4.746,8.16
15.317,4.295,8.22
15.333,4.465,8.28
15.350,5.031,8.34
15.367,5.677,8.40
15.383,6.147,8.46
15.400,6.654,8.52
15.417,7.047,8.58
15.433,7.444,8.65
15.450,7.759,8.71
15.467,8.847,8.77
15.483,11.085,8.83
15.500,13.949,8.90
15.517,19.575,8.96
15.533,30.463,9.02
15.550,45.420,9.09
15.567,59.561,9.15
15.583,66.695,9.22
15.600,63.734,9.28
15.617,52.346,9.35
15.633,37.967,9.41
15.650,24.959,9.48
15.667,14.143,9.54
15.683,6.345,9.61
15.700,1.529,9.67
15.717,-1.224,9.74
15.733,-2.888,9.81
15.750,-3.993,9.88
15.767,-4.521,9.94
15.783,-4.533,10.01
15.800,-4.481,10.08
15.817,-4.493,10.15
15.833,-4.562,10.22
15.850,-4.563,10.29
15.867,-4.417,10.36
15.883,-4.175,10.43
