VERSION=1.3
ExportFileName=PM VB 8_2025-05-14_13-24-16_labchip_PURE_Data_D10
SampleLabel=D10
SampleName=PM VB 8
SampleComment=
SampleAreaConcRatio=0.014743
SampleLowerMarkerTime=12.12
SampleUpperMarkerTime=-1.00
SamplePeakTimes=12.12,15.50,16.15,16.62,17.17,17.48,17.73,18.13,18.27,18.38,18.60,18.88,19.18,19.55,19.88,20.47,20.80,21.22,22.07,22.68,22.98,23.65,25.22,25.78,26.85,33.28
SamplePeakSizes=1.380,9.130,11.855,14.099,17.063,18.929,20.486,23.131,24.055,24.881,26.458,28.605,30.982,34.033,36.944,42.351,45.617,49.877,59.165,66.388,70.045,78.494,99.999,108.305,124.633,237.621
SamplePeakQuantities=,,3.4776,2.6897,18.5573,3.0610,7.7184,107.8440,119.5749,131.6598,25.4173,19.1300,12.0558,47.1914,367.0761,458.3559,747.7522,215.3087,384.4978,336.6193,31.2427,32.6407,118.8187,75.3200,12.0498,3.6473
PlateFileName=2025-05-14_13-24-16_labchip_PURE
PlateAssayName=HT Protein Express 200
PlateBarCode=N/A
WellAquisitionTime=5/14/2025 2:34:24 PM 
PlateDataFrequency=60
PlateDataStartTime=11.00
PlateDataEndTime=42.00
PlateConcUnits=ng/ul
PlateSizeUnits=kDa
PlateLadderSizes=1.40,15.90,20.40,28.90,48.40,68.40,119.20
ChipID=H296P-0563N-03
Operator=ACJS
DATA
Time,Value,Size
0.000,25.329,0.00
0.017,25.114,0.00
0.033,24.904,0.00
0.050,24.843,0.00
0.067,24.915,0.00
0.083,25.044,0.00
0.100,25.082,0.00
0.117,25.135,0.00
0.133,25.054,0.00
0.150,25.031,0.00
0.167,25.087,0.00
0.183,25.114,0.00
0.200,24.972,0.00
0.217,24.448,0.00
0.233,23.723,0.00
0.250,22.987,0.00
0.267,22.426,0.00
0.283,21.999,0.00
0.300,21.351,0.00
0.317,20.483,0.00
0.333,19.461,0.00
0.350,18.471,0.00
0.367,17.605,0.00
0.383,16.657,0.00
0.400,15.659,0.00
0.417,14.552,0.00
0.433,13.527,0.00
0.450,12.551,0.00
0.467,11.656,0.00
0.483,10.800,0.00
0.500,9.915,0.00
0.517,9.081,0.00
0.533,8.345,0.00
0.550,7.659,0.00
0.567,7.003,0.00
0.583,6.396,0.00
0.600,5.787,0.00
0.617,5.127,0.00
0.633,4.498,0.00
0.650,4.014,0.00
0.667,3.581,0.00
0.683,3.167,0.00
0.700,2.660,0.00
0.717,2.104,0.00
0.733,1.559,0.00
0.750,1.082,0.00
0.767,0.752,0.00
0.783,0.418,0.00
0.800,0.111,0.00
0.817,-0.156,0.00
0.833,-0.443,0.00
0.850,-0.690,0.00
0.867,-0.940,0.00
0.883,-1.202,0.00
0.900,-1.589,0.00
0.917,-1.946,0.00
0.933,-2.200,0.00
0.950,-2.452,0.00
0.967,-2.637,0.00
0.983,-2.830,0.00
1.000,-2.983,0.00
1.017,-3.194,0.00
1.033,-3.393,0.00
1.050,-3.596,0.00
1.067,-3.828,0.00
1.083,-3.962,0.00
1.100,-4.066,0.00
1.117,-4.182,0.00
1.133,-4.279,0.00
1.150,-4.383,0.00
1.167,-4.500,0.00
1.183,-4.715,0.00
1.200,-4.971,0.00
1.217,-5.199,0.00
1.233,-5.353,0.00
1.250,-5.507,0.00
1.267,-5.678,0.00
1.283,-5.808,0.00
1.300,-5.912,0.00
1.317,-5.961,0.00
1.333,-5.979,0.00
1.350,-6.019,0.00
1.367,-6.141,0.00
1.383,-6.268,0.00
1.400,-6.338,0.00
1.417,-6.422,0.00
1.433,-6.513,0.00
1.450,-6.601,0.00
1.467,-6.702,0.00
1.483,-6.758,0.00
1.500,-6.771,0.00
1.517,-6.852,0.00
1.533,-7.037,0.00
1.550,-7.201,0.00
1.567,-7.271,0.00
1.583,-7.289,0.00
1.600,-7.298,0.00
1.617,-7.393,0.00
1.633,-7.589,0.00
1.650,-7.744,0.00
1.667,-7.769,0.00
1.683,-7.761,0.00
1.700,-7.827,0.00
1.717,-7.944,0.00
1.733,-8.073,0.00
1.750,-8.159,0.00
1.767,-8.180,0.00
1.783,-8.204,0.00
1.800,-8.299,0.00
1.817,-8.429,0.00
1.833,-8.528,0.00
1.850,-8.609,0.00
1.867,-8.680,0.00
1.883,-8.711,0.00
1.900,-8.748,0.00
1.917,-8.821,0.00
1.933,-8.892,0.00
1.950,-8.920,0.00
1.967,-8.942,0.00
1.983,-8.991,0.00
2.000,-9.073,0.00
2.017,-9.189,0.00
2.033,-9.289,0.00
2.050,-9.336,0.00
2.067,-9.389,0.00
2.083,-9.450,0.00
2.100,-9.449,0.00
2.117,-9.428,0.00
2.133,-9.505,0.00
2.150,-9.674,0.00
2.167,-9.840,0.00
2.183,-9.942,0.00
2.200,-9.954,0.00
2.217,-9.918,0.00
2.233,-9.916,0.00
2.250,-9.988,0.00
2.267,-10.059,0.00
2.283,-10.054,0.00
2.300,-9.991,0.00
2.317,-9.921,0.00
2.333,-9.898,0.00
2.350,-9.989,0.00
2.367,-10.122,0.00
2.383,-10.210,0.00
2.400,-10.232,0.00
2.417,-10.240,0.00
2.433,-10.277,0.00
2.450,-10.356,0.00
2.467,-10.443,0.00
2.483,-10.500,0.00
2.500,-10.528,0.00
2.517,-10.589,0.00
2.533,-10.663,0.00
2.550,-10.765,0.00
2.567,-10.835,0.00
2.583,-10.852,0.00
2.600,-10.848,0.00
2.617,-10.867,0.00
2.633,-10.975,0.00
2.650,-11.097,0.00
2.667,-11.190,0.00
2.683,-11.286,0.00
2.700,-11.362,0.00
2.717,-11.419,0.00
2.733,-11.495,0.00
2.750,-11.530,0.00
2.767,-11.546,0.00
2.783,-11.554,0.00
2.800,-11.578,0.00
2.817,-11.544,0.00
2.833,-11.495,0.00
2.850,-11.538,0.00
2.867,-11.570,0.00
2.883,-11.556,0.00
2.900,-11.548,0.00
2.917,-11.488,0.00
2.933,-11.472,0.00
2.950,-11.534,0.00
2.967,-11.589,0.00
2.983,-11.612,0.00
3.000,-11.675,0.00
3.017,-11.770,0.00
3.033,-11.854,0.00
3.050,-11.922,0.00
3.067,-11.920,0.00
3.083,-11.896,0.00
3.100,-11.890,0.00
3.117,-11.959,0.00
3.133,-12.038,0.00
3.150,-12.074,0.00
3.167,-12.145,0.00
3.183,-12.187,0.00
3.200,-12.252,0.00
3.217,-12.274,0.00
3.233,-12.256,0.00
3.250,-12.253,0.00
3.267,-12.280,0.00
3.283,-12.357,0.00
3.300,-12.527,0.00
3.317,-12.741,0.00
3.333,-13.136,0.00
3.350,-13.666,0.00
3.367,-14.197,0.00
3.383,-14.650,0.00
3.400,-15.016,0.00
3.417,-15.335,0.00
3.433,-15.577,0.00
3.450,-15.733,0.00
3.467,-15.902,0.00
3.483,-16.013,0.00
3.500,-16.163,0.00
3.517,-16.320,0.00
3.533,-16.411,0.00
3.550,-16.458,0.00
3.567,-16.509,0.00
3.583,-16.591,0.00
3.600,-16.650,0.00
3.617,-16.719,0.00
3.633,-16.746,0.00
3.650,-16.748,0.00
3.667,-16.753,0.00
3.683,-16.806,0.00
3.700,-16.822,0.00
3.717,-16.783,0.00
3.733,-16.770,0.00
3.750,-16.776,0.00
3.767,-16.787,0.00
3.783,-16.817,0.00
3.800,-16.819,0.00
3.817,-16.807,0.00
3.833,-16.776,0.00
3.850,-16.759,0.00
3.867,-16.747,0.00
3.883,-16.701,0.00
3.900,-16.715,0.00
3.917,-16.749,0.00
3.933,-16.776,0.00
3.950,-16.764,0.00
3.967,-16.714,0.00
3.983,-16.631,0.00
4.000,-16.616,0.00
4.017,-16.636,0.00
4.033,-16.637,0.00
4.050,-16.569,0.00
4.067,-16.496,0.00
4.083,-16.413,0.00
4.100,-16.389,0.00
4.117,-16.450,0.00
4.133,-16.526,0.00
4.150,-16.536,0.00
4.167,-16.523,0.00
4.183,-16.439,0.00
4.200,-16.374,0.00
4.217,-16.377,0.00
4.233,-16.444,0.00
4.250,-16.499,0.00
4.267,-16.493,0.00
4.283,-16.459,0.00
4.300,-16.428,0.00
4.317,-16.417,0.00
4.333,-16.430,0.00
4.350,-16.446,0.00
4.367,-16.444,0.00
4.383,-16.399,0.00
4.400,-16.334,0.00
4.417,-16.301,0.00
4.433,-16.310,0.00
4.450,-16.343,0.00
4.467,-16.312,0.00
4.483,-16.233,0.00
4.500,-16.136,0.00
4.517,-16.093,0.00
4.533,-16.110,0.00
4.550,-16.127,0.00
4.567,-16.122,0.00
4.583,-16.095,0.00
4.600,-16.035,0.00
4.617,-15.977,0.00
4.633,-15.910,0.00
4.650,-15.895,0.00
4.667,-15.909,0.00
4.683,-15.864,0.00
4.700,-15.726,0.00
4.717,-15.529,0.00
4.733,-15.340,0.00
4.750,-15.160,0.00
4.767,-14.987,0.00
4.783,-14.833,0.00
4.800,-14.643,0.00
4.817,-14.420,0.00
4.833,-14.159,0.00
4.850,-13.839,0.00
4.867,-13.517,0.00
4.883,-13.244,0.00
4.900,-12.999,0.00
4.917,-12.744,0.00
4.933,-12.514,0.00
4.950,-12.288,0.00
4.967,-12.003,0.00
4.983,-11.734,0.00
5.000,-11.530,0.00
5.017,-11.357,0.00
5.033,-11.195,0.00
5.050,-10.981,0.00
5.067,-10.719,0.00
5.083,-10.472,0.00
5.100,-10.292,0.00
5.117,-10.174,0.00
5.133,-10.032,0.00
5.150,-9.890,0.00
5.167,-9.784,0.00
5.183,-9.687,0.00
5.200,-9.629,0.00
5.217,-9.557,0.00
5.233,-9.463,0.00
5.250,-9.334,0.00
5.267,-9.183,0.00
5.283,-9.070,0.00
5.300,-8.971,0.00
5.317,-8.894,0.00
5.333,-8.884,0.00
5.350,-8.922,0.00
5.367,-8.965,0.00
5.383,-8.889,0.00
5.400,-8.862,0.00
5.417,-9.002,0.00
5.433,-9.365,0.00
5.450,-9.802,0.00
5.467,-10.076,0.00
5.483,-10.060,0.00
5.500,-9.890,0.00
5.517,-9.734,0.00
5.533,-9.651,0.00
5.550,-9.537,0.00
5.567,-9.431,0.00
5.583,-9.277,0.00
5.600,-9.119,0.00
5.617,-8.972,0.00
5.633,-8.841,0.00
5.650,-8.714,0.00
5.667,-8.629,0.00
5.683,-8.660,0.00
5.700,-8.742,0.00
5.717,-8.833,0.00
5.733,-8.853,0.00
5.750,-8.813,0.00
5.767,-8.780,0.00
5.783,-8.728,0.00
5.800,-8.724,0.00
5.817,-8.719,0.00
5.833,-8.675,0.00
5.850,-8.708,0.00
5.867,-8.772,0.00
5.883,-8.833,0.00
5.900,-8.763,0.00
5.917,-8.625,0.00
5.933,-8.535,0.00
5.950,-8.531,0.00
5.967,-8.676,0.00
5.983,-8.849,0.00
6.000,-8.939,0.00
6.017,-8.975,0.00
6.033,-8.967,0.00
6.050,-8.934,0.00
6.067,-8.960,0.00
6.083,-8.989,0.00
6.100,-9.066,0.00
6.117,-9.086,0.00
6.133,-9.106,0.00
6.150,-9.141,0.00
6.167,-9.159,0.00
6.183,-9.208,0.00
6.200,-9.240,0.00
6.217,-9.259,0.00
6.233,-9.311,0.00
6.250,-9.367,0.00
6.267,-9.447,0.00
6.283,-9.488,0.00
6.300,-9.513,0.00
6.317,-9.497,0.00
6.333,-9.500,0.00
6.350,-9.526,0.00
6.367,-9.650,0.00
6.383,-9.820,0.00
6.400,-9.897,0.00
6.417,-9.931,0.00
6.433,-9.910,0.00
6.450,-10.017,0.00
6.467,-10.155,0.00
6.483,-10.295,0.00
6.500,-10.383,0.00
6.517,-10.360,0.00
6.533,-11.925,0.00
6.550,-17.808,0.00
6.567,27.121,0.00
6.583,-14.003,0.00
6.600,-75.099,0.00
6.617,-4.878,0.00
6.633,311.477,0.00
6.650,809.319,0.00
6.667,1464.916,0.00
6.683,2128.994,0.00
6.700,2634.622,0.00
6.717,2937.339,0.00
6.733,3100.713,0.00
6.750,3078.530,0.00
6.767,3006.580,0.00
6.783,2975.207,0.00
6.800,2981.242,0.00
6.817,2945.081,0.00
6.833,2922.282,0.00
6.850,2909.943,0.00
6.867,2904.644,0.00
6.883,2904.118,0.00
6.900,2907.808,0.00
6.917,2910.875,0.00
6.933,2913.273,0.00
6.950,2914.799,0.00
6.967,2915.904,0.00
6.983,2916.989,0.00
7.000,2918.423,0.00
7.017,2920.109,0.00
7.033,2921.168,0.00
7.050,2921.967,0.00
7.067,2923.840,0.00
7.083,2925.540,0.00
7.100,2927.357,0.00
7.117,2928.938,0.00
7.133,2929.694,0.00
7.150,2928.887,0.00
7.167,2928.733,0.00
7.183,2929.393,0.00
7.200,2929.801,0.00
7.217,2929.190,0.00
7.233,2928.305,0.00
7.250,2927.843,0.00
7.267,2927.041,0.00
7.283,2925.737,0.00
7.300,2923.128,0.00
7.317,2919.879,0.00
7.333,2916.331,0.00
7.350,2912.520,0.00
7.367,2907.638,0.00
7.383,2901.496,0.00
7.400,2894.807,0.00
7.417,2888.991,0.00
7.433,2883.688,0.00
7.450,2877.650,0.00
7.467,2870.915,0.00
7.483,2864.449,0.00
7.500,2857.385,0.00
7.517,2850.584,0.00
7.533,2844.561,0.00
7.550,2838.113,0.00
7.567,2831.772,0.00
7.583,2825.082,0.00
7.600,2818.237,0.00
7.617,2811.768,0.00
7.633,2805.554,0.00
7.650,2800.115,0.00
7.667,2795.091,0.00
7.683,2789.230,0.00
7.700,2783.060,0.00
7.717,2776.622,0.00
7.733,2770.414,0.00
7.750,2764.244,0.00
7.767,2758.361,0.00
7.783,2752.853,0.00
7.800,2747.101,0.00
7.817,2741.976,0.00
7.833,2736.948,0.00
7.850,2731.314,0.00
7.867,2726.218,0.00
7.883,2721.420,0.00
7.900,2715.647,0.00
7.917,2708.831,0.00
7.933,2701.439,0.00
7.950,2694.306,0.00
7.967,2688.490,0.00
7.983,2684.135,0.00
8.000,2679.406,0.00
8.017,2673.243,0.00
8.033,2666.021,0.00
8.050,2659.113,0.00
8.067,2653.715,0.00
8.083,2648.679,0.00
8.100,2643.676,0.00
8.117,2638.803,0.00
8.133,2634.178,0.00
8.150,2629.302,0.00
8.167,2623.691,0.00
8.183,2617.779,0.00
8.200,2611.831,0.00
8.217,2606.683,0.00
8.233,2602.835,0.00
8.250,2599.042,0.00
8.267,2594.714,0.00
8.283,2590.066,0.00
8.300,2585.581,0.00
8.317,2581.365,0.00
8.333,2578.121,0.00
8.350,2575.503,0.00
8.367,2572.331,0.00
8.383,2568.665,0.00
8.400,2565.344,0.00
8.417,2563.161,0.00
8.433,2561.897,0.00
8.450,2561.628,0.00
8.467,2561.127,0.00
8.483,2559.665,0.00
8.500,2558.992,0.00
8.517,2558.442,0.00
8.533,2558.045,0.00
8.550,2558.686,0.00
8.567,2558.760,0.00
8.583,2557.462,0.00
8.600,2556.222,0.00
8.617,2556.534,0.00
8.633,2556.412,0.00
8.650,2556.014,0.00
8.667,2555.896,0.00
8.683,2554.822,0.00
8.700,2552.711,0.00
8.717,2550.589,0.00
8.733,2548.247,0.00
8.750,2545.792,0.00
8.767,2543.758,0.00
8.783,2541.885,0.00
8.800,2539.033,0.00
8.817,2536.496,0.00
8.833,2534.852,0.00
8.850,2534.207,0.00
8.867,2534.326,0.00
8.883,2533.562,0.00
8.900,2531.486,0.00
8.917,2529.401,0.00
8.933,2526.046,0.00
8.950,2522.011,0.00
8.967,2517.846,0.00
8.983,2513.657,0.00
9.000,2509.788,0.00
9.017,2506.358,0.00
9.033,2502.146,0.00
9.050,2496.676,0.00
9.067,2490.092,0.00
9.083,2483.876,0.00
9.100,2477.213,0.00
9.117,2470.668,0.00
9.133,2463.755,0.00
9.150,2455.408,0.00
9.167,2452.240,0.00
9.183,2442.394,0.00
9.200,2425.690,0.00
9.217,2419.052,0.00
9.233,2430.987,0.00
9.250,2482.281,0.00
9.267,2564.160,0.00
9.283,2646.402,0.00
9.300,2696.841,0.00
9.317,2706.574,0.00
9.333,2696.509,0.00
9.350,2676.145,0.00
9.367,2662.722,0.00
9.383,2657.239,0.00
9.400,2647.364,0.00
9.417,2638.203,0.00
9.433,2627.080,0.00
9.450,2614.765,0.00
9.467,2603.453,0.00
9.483,2593.487,0.00
9.500,2584.545,0.00
9.517,2578.830,0.00
9.533,2570.502,0.00
9.550,2558.479,0.00
9.567,2550.456,0.00
9.583,2549.229,0.00
9.600,2568.304,0.00
9.617,2605.486,0.00
9.633,2638.849,0.00
9.650,2659.500,0.00
9.667,2653.846,0.00
9.683,2632.748,0.00
9.700,2619.344,0.00
9.717,2631.942,0.00
9.733,2689.251,0.00
9.750,2777.905,0.00
9.767,2877.852,0.00
9.783,2924.487,0.00
9.800,2956.715,0.00
9.817,3005.925,0.00
9.833,3010.145,0.00
9.850,2909.519,0.00
9.867,2607.198,0.00
9.883,2140.949,0.00
9.900,1633.747,0.00
9.917,1193.922,0.00
9.933,854.086,0.00
9.950,568.336,0.00
9.967,354.812,0.00
9.983,210.104,0.00
10.000,123.040,0.00
10.017,86.259,0.00
10.033,43.638,0.00
10.050,9.498,0.00
10.067,-10.795,0.00
10.083,-18.349,0.00
10.100,-17.691,0.00
10.117,-15.402,0.00
10.133,-13.236,0.00
10.150,-10.703,0.00
10.167,-8.437,0.00
10.183,-6.741,0.00
10.200,-5.524,0.00
10.217,-4.677,0.00
10.233,-4.014,0.00
10.250,-3.512,0.00
10.267,-3.043,0.00
10.283,-2.644,0.00
10.300,-2.282,0.00
10.317,-1.702,0.00
10.333,-1.054,0.00
10.350,-0.605,0.00
10.367,-0.732,0.00
10.383,-1.403,0.00
10.400,-2.223,0.00
10.417,-2.744,0.00
10.433,-2.784,0.00
10.450,-2.649,0.00
10.467,-2.631,0.00
10.483,-2.658,0.00
10.500,-2.719,0.00
10.517,-2.693,0.00
10.533,-2.549,0.00
10.550,-2.250,0.00
10.567,-1.920,0.00
10.583,-1.771,0.00
10.600,-1.820,0.00
10.617,-2.010,0.00
10.633,-2.131,0.00
10.650,-2.001,0.00
10.667,-1.768,0.00
10.683,-1.662,0.00
10.700,-1.676,0.00
10.717,-1.658,0.00
10.733,-1.543,0.00
10.750,-1.317,0.00
10.767,-1.173,0.00
10.783,-1.235,0.00
10.800,-1.202,0.00
10.817,-0.914,0.00
10.833,-0.507,0.00
10.850,-0.160,0.00
10.867,0.096,0.00
10.883,0.076,0.00
10.900,0.001,0.00
10.917,0.585,0.00
10.933,1.456,0.00
10.950,1.954,0.00
10.967,1.824,0.00
10.983,1.059,0.00
11.000,0.155,0.00
11.017,-0.274,0.00
11.033,-0.064,0.00
11.050,0.177,0.00
11.067,0.091,0.00
11.083,0.311,0.00
11.100,0.693,0.00
11.117,1.056,0.00
11.133,1.295,0.00
11.150,1.421,0.00
11.167,1.717,0.00
11.183,2.395,0.00
11.200,3.191,0.00
11.217,3.576,0.00
11.233,3.198,0.00
11.250,2.545,0.00
11.267,1.909,0.00
11.283,1.493,0.00
11.300,1.299,0.00
11.317,1.232,0.00
11.333,1.209,0.00
11.350,1.250,0.00
11.367,1.338,0.00
11.383,1.461,0.00
11.400,1.579,0.00
11.417,2.184,0.00
11.433,3.039,0.00
11.450,3.253,0.00
11.467,2.412,0.00
11.483,0.796,0.00
11.500,-0.847,0.00
11.517,-1.780,0.00
11.533,-1.879,0.00
11.550,-1.542,0.00
11.567,-1.242,0.00
11.583,-0.820,0.00
11.600,-0.426,0.00
11.617,-0.246,0.00
11.633,-0.405,0.00
11.650,-0.753,0.00
11.667,-0.983,0.00
11.683,-1.039,0.00
11.700,-1.061,0.00
11.717,-1.009,0.00
11.733,-1.020,0.00
11.750,-1.204,0.00
11.767,-1.298,0.00
11.783,-1.214,0.00
11.800,-1.160,0.00
11.817,-1.043,0.00
11.833,-0.952,0.00
11.850,-1.035,0.00
11.867,-1.135,0.00
11.883,-1.191,0.00
11.900,-1.248,0.00
11.917,-1.281,0.00
11.933,-1.207,0.00
11.950,-1.216,0.00
11.967,-1.285,0.00
11.983,-1.455,0.00
12.000,-1.208,0.00
12.017,1.201,0.00
12.033,5.350,0.00
12.050,3.008,0.00
12.067,-0.780,0.00
12.083,76.215,0.00
12.100,352.355,0.00
12.117,788.130,0.00
12.133,1139.511,0.00
12.150,1168.435,0.00
12.167,850.107,0.00
12.183,397.033,1.41
12.200,72.635,1.43
12.217,-25.693,1.45
12.233,-5.349,1.47
12.250,8.583,1.48
12.267,1.915,1.50
12.283,-1.784,1.52
12.300,-1.828,1.54
12.317,-1.475,1.56
12.333,-1.354,1.58
12.350,-1.238,1.59
12.367,-1.092,1.61
12.383,-1.099,1.63
12.400,-1.202,1.65
12.417,-1.318,1.67
12.433,-1.408,1.69
12.450,-1.421,1.71
12.467,-1.397,1.73
12.483,-1.434,1.75
12.500,-1.546,1.77
12.517,-1.584,1.79
12.533,-1.516,1.81
12.550,-1.458,1.83
12.567,-1.485,1.85
12.583,-1.371,1.88
12.600,-1.345,1.90
12.617,-1.335,1.92
12.633,-1.352,1.94
12.650,-1.381,1.96
12.667,-1.491,1.98
12.683,-1.551,2.01
12.700,-1.524,2.03
12.717,-1.502,2.05
12.733,-1.542,2.07
12.750,-1.502,2.10
12.767,-1.512,2.12
12.783,-1.465,2.14
12.800,-1.339,2.17
12.817,-1.231,2.19
12.833,-1.249,2.21
12.850,-1.294,2.24
12.867,-1.327,2.26
12.883,-1.407,2.29
12.900,-1.520,2.31
12.917,-1.370,2.34
12.933,-0.898,2.36
12.950,-0.304,2.39
12.967,-0.065,2.41
12.983,-0.287,2.44
13.000,-0.783,2.46
13.017,-1.178,2.49
13.033,-1.215,2.51
13.050,-1.177,2.54
13.067,-1.209,2.57
13.083,-1.202,2.59
13.100,-1.163,2.62
13.117,-1.133,2.65
13.133,-1.178,2.68
13.150,-1.232,2.70
13.167,-1.275,2.73
13.183,-1.274,2.76
13.200,-1.222,2.79
13.217,-1.217,2.82
13.233,-1.121,2.84
13.250,-1.009,2.87
13.267,-1.047,2.90
13.283,-1.117,2.93
13.300,-0.948,2.96
13.317,-0.518,2.99
13.333,-0.044,3.02
13.350,0.175,3.05
13.367,-0.091,3.08
13.383,-0.619,3.11
13.400,-0.954,3.14
13.417,-1.007,3.17
13.433,-0.931,3.20
13.450,-0.802,3.23
13.467,-0.652,3.27
13.483,-0.477,3.30
13.500,-0.270,3.33
13.517,-0.024,3.36
13.533,0.121,3.39
13.550,0.542,3.43
13.567,1.080,3.46
13.583,1.480,3.49
13.600,2.221,3.53
13.617,3.123,3.56
13.633,3.724,3.59
13.650,3.837,3.63
13.667,3.359,3.66
13.683,2.512,3.69
13.700,1.785,3.73
13.717,1.576,3.76
13.733,1.430,3.80
13.750,0.930,3.83
13.767,0.523,3.87
13.783,0.038,3.91
13.800,-0.466,3.94
13.817,-0.754,3.98
13.833,-0.897,4.01
13.850,-0.902,4.05
13.867,-0.823,4.09
13.883,-0.805,4.12
13.900,-0.771,4.16
13.917,-0.670,4.20
13.933,-0.491,4.24
13.950,-0.418,4.28
13.967,-0.504,4.31
13.983,-0.635,4.35
14.000,-0.775,4.39
14.017,-0.837,4.43
14.033,-0.909,4.47
14.050,-1.002,4.51
14.067,-1.016,4.55
14.083,-1.000,4.59
14.100,-0.963,4.63
14.117,-0.906,4.67
14.133,-0.856,4.71
14.150,-0.806,4.75
14.167,-0.815,4.79
14.183,-0.872,4.83
14.200,-0.910,4.87
14.217,-0.808,4.92
14.233,-0.679,4.96
14.250,-0.673,5.00
14.267,-0.784,5.04
14.283,-0.909,5.09
14.300,-0.987,5.13
14.317,-0.959,5.17
14.333,-0.869,5.22
14.350,-0.937,5.26
14.367,-1.009,5.30
14.383,-0.794,5.35
14.400,-0.461,5.39
14.417,-0.155,5.44
14.433,-0.089,5.48
14.450,-0.403,5.53
14.467,-0.856,5.58
14.483,-1.059,5.62
14.500,-0.965,5.67
14.517,-0.748,5.71
14.533,-0.511,5.76
14.550,-0.268,5.81
14.567,-0.155,5.85
14.583,-0.063,5.90
14.600,0.138,5.95
14.617,0.215,6.00
14.633,0.110,6.05
14.650,0.027,6.09
14.667,0.095,6.14
14.683,0.292,6.19
14.700,0.433,6.24
14.717,0.420,6.29
14.733,0.184,6.34
14.750,-0.181,6.39
14.767,-0.280,6.44
14.783,-0.332,6.49
14.800,-0.481,6.54
14.817,-0.492,6.59
14.833,-0.249,6.65
14.850,0.063,6.70
14.867,0.492,6.75
14.883,1.088,6.80
14.900,1.718,6.85
14.917,2.227,6.91
14.933,2.669,6.96
14.950,2.910,7.01
14.967,2.859,7.07
14.983,2.820,7.12
15.000,2.850,7.17
15.017,2.776,7.23
15.033,2.622,7.28
15.050,2.496,7.34
15.067,2.364,7.39
15.083,2.400,7.45
15.100,2.737,7.51
15.117,3.129,7.56
15.133,3.566,7.62
15.150,4.319,7.67
15.167,5.406,7.73
15.183,6.453,7.79
15.200,6.882,7.85
15.217,6.312,7.90
15.233,4.891,7.96
15.250,3.450,8.02
15.267,2.589,8.08
15.283,2.170,8.14
15.300,2.268,8.20
15.317,2.665,8.26
15.333,3.069,8.32
15.350,3.370,8.38
15.367,3.539,8.44
15.383,3.736,8.50
15.400,4.119,8.56
15.417,4.826,8.62
15.433,6.270,8.68
15.450,8.304,8.74
15.467,10.407,8.80
15.483,15.165,8.87
15.500,25.596,8.93
15.517,40.676,8.99
15.533,54.437,9.06
15.550,59.734,9.12
15.567,53.509,9.18
15.583,39.143,9.25
15.600,23.970,9.31
15.617,12.859,9.38
15.633,5.610,9.44
15.650,1.224,9.51
15.667,-1.210,9.57
15.683,-2.499,9.64
15.700,-3.064,9.70
15.717,-2.981,9.77
15.733,-2.526,9.84
15.750,-2.167,9.90
